#FORMAT      : EMSA/MAS Spectral Data File
#VERSION     : 1.0
#TITLE       : penepma-Ir-500nm-Ag-250nm-Silica
#DATE        : 20-Jul-2018
#TIME        : 16:01:44
#OWNER       : Penepma
#NPOINTS     : 4096
#NCOLUMNS    : 1
#XUNITS      : keV
#YUNITS      : counts
#DATATYPE    : Y
#XPERCHAN    : 0.0073242
#OFFSET      : 0.0
#BEAMKV      : 30
#XLABEL      : Energy [keV]
#YLABEL      : Counts
#SPECTRUM    : 
0.10 
0.10 
0.10 
0.10 
0.10 
0.10 
0.10 
0.10 
0.10 
0.10 
0.10 
0.10 
8833.05 
12780.55 
13464.05 
12513.40 
11854.73 
10091.76 
8916.67 
7490.48 
6869.16 
5099.62 
5069.13 
4702.31 
3497.14 
5882.09 
3988.96 
3587.32 
2900.41 
3064.87 
7467.84 
2344.95 
4660.62 
3653.63 
2072.38 
5421.65 
1932.93 
1879.64 
1825.47 
2233.25 
2403.35 
1806.40 
8780.72 
2377.72 
1790.21 
1731.59 
1726.58 
1869.03 
1932.35 
1799.92 
1847.42 
1814.35 
3234.94 
1775.47 
1743.82 
1846.68 
1874.01 
1730.18 
1658.99 
1781.27 
1832.05 
1682.69 
1645.03 
1815.13 
2247.64 
2385.92 
1383.67 
2140.04 
2003.97 
1641.46 
1551.99 
13568.97 
1556.69 
1654.17 
1549.75 
1957.71 
3254.40 
1545.36 
1507.01 
1517.16 
2792.90 
1707.28 
1643.21 
2424.02 
1508.42 
2062.92 
1777.85 
1838.97 
1586.47 
1942.39 
1605.38 
5692.26 
1704.17 
1663.82 
1596.19 
1517.04 
1611.76 
1936.06 
1564.93 
1555.91 
1585.77 
1493.34 
1675.49 
1776.10 
1710.28 
1990.58 
2934.99 
1709.76 
1668.12 
1682.65 
1572.94 
1814.76 
1614.66 
1732.33 
1656.21 
1874.47 
1513.75 
1837.64 
1529.75 
1796.16 
1486.33 
1802.27 
1634.27 
1406.09 
1838.95 
1508.27 
5755.31 
1789.64 
1823.70 
1723.24 
1808.39 
1698.53 
1466.58 
1469.40 
1808.70 
1837.54 
1938.24 
1661.40 
1644.55 
1667.90 
1708.19 
1595.51 
1587.36 
1642.42 
1681.42 
1823.57 
1803.48 
1723.76 
1820.14 
5700.93 
1584.09 
1751.81 
1642.42 
1766.81 
1684.89 
1523.00 
1798.52 
1719.06 
1590.81 
1636.31 
1647.23 
1540.56 
1755.52 
1673.77 
1483.62 
9588.88 
1711.39 
1494.17 
1890.17 
1672.34 
5816.88 
1629.41 
1625.00 
1552.00 
1548.08 
1635.01 
5664.88 
1522.53 
1487.27 
1725.80 
1670.48 
1590.97 
5685.26 
5483.09 
1431.48 
1729.09 
1413.41 
1597.76 
1638.61 
1574.86 
1667.50 
1534.44 
1548.86 
1671.10 
5525.25 
1366.75 
5490.77 
1698.85 
1504.20 
1333.22 
1649.95 
1420.67 
1529.74 
1427.88 
1574.22 
1607.79 
1410.32 
1530.84 
1268.49 
1471.44 
1674.22 
1402.02 
19825.13 
27500.24 
1539.77 
1593.06 
1630.51 
1638.04 
5484.19 
1652.77 
5571.17 
1346.22 
5481.68 
6767.59 
5428.40 
1632.24 
1303.75 
1471.76 
1525.04 
1389.01 
1360.78 
5282.96 
5570.86 
1435.08 
5426.52 
1296.54 
1514.36 
1918114.00 
1554.59 
5461.15 
5504.72 
5303.96 
9427.82 
1402.44 
1587.74 
1467.63 
1487.90 
1398.41 
1417.06 
1477.55 
45991.20 
9325.95 
1357.04 
1375.69 
6481.37 
1431.79 
1368.16 
1214.89 
1317.07 
1177.73 
1290.25 
1398.72 
1376.47 
1287.61 
1247.66 
1381.80 
1260.97 
5455.04 
1359.23 
377950.10 
1239.34 
5418.68 
8123.39 
9079.28 
1186.06 
1392.93 
1271.60 
1271.60 
1222.10 
5289.57 
211480.20 
1070.24 
1451.74 
999.72 
5256.47 
932.17 
1065.23 
4987.07 
1055.51 
891.42 
1144.06 
1092.65 
4852.76 
837.02 
1023.54 
865.56 
4936.30 
1047.69 
963.83 
836.41 
903.80 
4969.05 
926.37 
1788.83 
3321.82 
839.70 
21127.62 
873.87 
873.87 
4738.05 
748.96 
949.41 
946.59 
791.44 
682.20 
731.41 
848.32 
811.18 
887.19 
927.15 
672.01 
868.85 
785.32 
825.29 
882.18 
888.60 
1000.50 
865.25 
932.48 
4798.85 
699.75 
869.17 
741.44 
1975.83 
887.97 
907.20 
4898.53 
900.51 
683.93 
4846.34 
5030.17 
976.36 
858.96 
758.37 
895.81 
2618.48 
746.14 
890.01 
791.44 
762.75 
909.45 
2043.66 
743.64 
7076.87 
8639.99 
804.44 
737.84 
791.12 
763.85 
22147.98 
911.64 
820.59 
676.72 
1658.37 
753.35 
813.06 
5021.87 
701.48 
830.30 
822.47 
737.84 
803.35 
4802.46 
834.22 
664.18 
904.43 
777.80 
750.06 
745.83 
782.82 
770.59 
742.54 
5118.40 
15320.02 
700.07 
729.53 
756.17 
901.61 
735.64 
664.81 
825.08 
864.15 
4901.35 
724.52 
1252.52 
4589.79 
814.47 
696.15 
818.86 
796.92 
671.70 
800.84 
764.48 
899.24 
691.76 
816.67 
20289.16 
193466.50 
786.11 
4785.53 
715.58 
851.93 
756.96 
862.88 
645.17 
720.60 
694.74 
731.73 
797.23 
850.52 
1234.06 
738.62 
1126.93 
562.62 
675.93 
4750.90 
783.13 
759.78 
774.20 
832.50 
77370.49 
559.80 
796.14 
4748.39 
896.91 
857.52 
4699.29 
5201.67 
690.04 
674.21 
646.16 
9029.23 
703.67 
2790.95 
648.98 
585.66 
4625.05 
4740.55 
667.00 
635.66 
658.69 
692.86 
821.19 
566.23 
759.46 
20086.91 
887.51 
737.52 
654.78 
808.36 
708.69 
714.49 
650.39 
762.29 
731.41 
709.78 
573.12 
5541.80 
732.51 
766.99 
528.15 
4669.72 
591.46 
756.97 
654.78 
722.01 
761.66 
4672.54 
825.29 
4699.18 
7608.01 
725.93 
706.96 
626.25 
532.38 
711.98 
625.63 
4695.57 
4586.18 
635.16 
667.31 
577.04 
704.46 
718.87 
782.82 
4561.74 
4674.73 
667.00 
504.01 
642.87 
623.12 
628.13 
672.80 
454.33 
645.06 
634.25 
4728.33 
7575.86 
578.45 
4667.52 
780.31 
573.75 
606.19 
632.83 
739.25 
711.66 
685.02 
536.45 
4547.00 
661.20 
692.54 
658.69 
4612.83 
663.40 
437.09 
556.51 
589.27 
4675.83 
4600.29 
4636.96 
4617.84 
565.92 
629.54 
4662.82 
580.33 
742.22 
643.96 
675.62 
536.77 
660.57 
473.76 
4644.17 
623.43 
735.33 
658.69 
596.48 
570.93 
4631.95 
589.58 
4638.37 
467.34 
548.99 
4840.23 
4585.09 
614.81 
603.68 
4517.54 
562.31 
625.63 
763.07 
525.95 
591.77 
594.28 
618.42 
736.43 
467.34 
656.19 
655.40 
527.36 
590.36 
645.06 
488.18 
774.51 
4564.24 
4606.40 
706.18 
516.24 
611.99 
608.39 
4628.65 
519.84 
608.39 
593.97 
539.27 
646.47 
4525.38 
548.99 
539.27 
4661.72 
630.64 
582.35 
494.29 
4661.09 
461.54 
650.07 
515.14 
559.60 
589.27 
4606.71 
532.06 
524.86 
443.20 
556.20 
462.64 
535.98 
588.17 
570.62 
573.44 
680.32 
518.74 
561.21 
4637.28 
638.95 
527.36 
448.22 
525.64 
645.06 
502.91 
687.84 
4447.64 
610.89 
556.20 
4626.46 
8679.17 
537.86 
424.08 
488.18 
519.84 
589.27 
612.30 
4500.15 
515.14 
525.95 
487.35 
4608.12 
552.59 
522.66 
519.84 
4586.18 
4582.27 
407.94 
4485.10 
521.25 
720.60 
506.00 
4512.06 
409.35 
4550.92 
522.35 
439.29 
523.76 
482.07 
4491.21 
505.22 
563.41 
556.51 
509.34 
546.80 
550.40 
463.73 
505.11 
517.33 
8623.38 
4563.93 
475.96 
569.83 
577.93 
511.53 
508.71 
396.03 
572.34 
4552.33 
595.06 
4429.31 
617.32 
549.30 
418.76 
518.43 
445.71 
449.00 
4435.11 
471.26 
588.17 
444.30 
4523.18 
449.32 
482.07 
562.62 
584.25 
580.65 
503.70 
555.42 
417.66 
4500.93 
4454.54 
309.37 
4425.39 
449.32 
570.62 
4523.97 
444.30 
483.17 
520.15 
366.57 
8523.39 
4485.41 
517.65 
551.50 
4493.72 
488.18 
472.67 
494.29 
4543.40 
443.20 
460.13 
521.25 
595.38 
451.82 
4442.31 
546.48 
449.63 
434.58 
384.59 
503.70 
550.98 
4422.88 
485.67 
470.16 
410.45 
542.88 
492.88 
492.10 
423.77 
563.41 
4589.79 
524.54 
455.11 
469.85 
4447.33 
454.33 
511.53 
4517.07 
540.37 
509.03 
468.75 
450.41 
4500.93 
454.02 
525.64 
372.37 
336.01 
465.14 
516.24 
421.26 
8480.92 
452.92 
515.92 
377.38 
593.97 
4521.46 
378.48 
392.11 
356.85 
346.04 
558.71 
465.14 
4516.76 
4487.61 
460.13 
434.90 
428.47 
511.22 
389.61 
366.57 
382.40 
451.82 
4419.28 
4463.16 
468.75 
4441.22 
424.37 
383.49 
414.05 
473.45 
457.62 
411.55 
427.38 
553.69 
384.59 
504.01 
359.36 
378.79 
559.33 
366.25 
435.68 
4386.52 
450.41 
504.01 
443.20 
392.11 
418.76 
393.21 
470.94 
411.55 
477.37 
411.55 
394.31 
577.04 
479.36 
441.79 
520.94 
357.63 
362.65 
443.20 
323.78 
406.53 
352.93 
407.94 
508.71 
479.88 
364.06 
394.31 
455.11 
448.22 
440.18 
338.83 
372.68 
371.58 
360.46 
366.57 
571.24 
373.78 
407.94 
457.94 
322.69 
379.89 
361.24 
454.02 
356.85 
393.21 
336.32 
460.13 
448.22 
455.43 
422.36 
475.96 
463.73 
463.73 
4346.25 
440.70 
339.93 
407.94 
391.02 
387.10 
439.60 
465.93 
400.42 
445.40 
328.80 
342.12 
374.87 
315.79 
412.64 
419.07 
439.60 
349.33 
382.71 
416.25 
336.32 
369.08 
407.94 
325.19 
423.46 
339.61 
434.90 
375.19 
499.00 
4351.26 
422.67 
4352.36 
474.86 
396.81 
454.02 
440.70 
339.61 
405.43 
353.25 
437.09 
299.65 
377.38 
332.40 
567.33 
282.72 
361.55 
412.64 
383.18 
8511.17 
345.72 
471.26 
366.57 
284.13 
4341.55 
354.34 
348.23 
407.94 
4534.78 
411.55 
329.11 
460.13 
328.80 
439.29 
460.13 
386.00 
478.47 
4336.53 
384.59 
414.05 
404.34 
390.70 
355.44 
350.43 
324.10 
294.63 
329.90 
433.49 
542.88 
364.06 
258.27 
406.53 
303.25 
317.67 
322.69 
4397.34 
347.13 
360.46 
434.58 
447.91 
322.69 
486.77 
310.46 
4338.72 
337.42 
367.66 
4515.35 
403.24 
384.59 
361.55 
405.43 
370.49 
397.13 
4430.41 
326.29 
366.57 
316.57 
277.71 
308.27 
395.72 
417.66 
396.81 
324.10 
422.67 
393.21 
355.44 
4313.49 
530.65 
351.84 
380.99 
277.71 
286.01 
390.70 
376.28 
286.01 
456.52 
428.47 
391.02 
318.77 
342.43 
271.60 
4270.71 
4464.26 
316.69 
316.57 
309.37 
384.90 
359.05 
235.24 
336.01 
4374.30 
394.31 
343.22 
4325.72 
359.05 
349.33 
4321.80 
362.65 
280.22 
4368.19 
383.49 
311.56 
277.39 
373.78 
421.26 
4379.31 
316.57 
354.34 
361.55 
301.84 
299.33 
336.01 
366.57 
412.64 
383.81 
326.29 
214.39 
316.57 
211.89 
322.69 
337.42 
4350.95 
292.13 
388.19 
286.33 
401.83 
432.39 
283.82 
332.09 
322.37 
242.13 
262.98 
390.70 
383.49 
279.90 
211.89 
351.84 
344.63 
323.78 
321.59 
383.49 
289.93 
305.45 
309.05 
288.52 
338.20 
244.64 
281.31 
419.85 
373.78 
331.31 
307.95 
348.23 
284.92 
311.87 
379.89 
282.41 
301.06 
228.81 
348.23 
355.44 
315.16 
303.25 
356.54 
310.46 
439.60 
324.88 
265.17 
265.48 
279.90 
338.20 
317.67 
306.86 
345.72 
360.77 
210.79 
317.67 
337.42 
357.95 
329.90 
4372.89 
348.23 
286.01 
276.30 
343.53 
318.77 
262.98 
337.10 
233.83 
366.25 
320.18 
336.01 
287.11 
292.13 
4382.92 
366.57 
332.40 
279.90 
297.14 
267.99 
305.45 
9051.87 
360.46 
304.35 
303.25 
305.45 
361.87 
288.52 
323.78 
344.63 
319.08 
267.68 
372.05 
259.37 
332.40 
253.26 
308.27 
336.01 
4273.22 
367.66 
304.35 
314.07 
294.95 
257.96 
360.46 
276.61 
276.30 
360.14 
266.89 
216.59 
284.92 
237.43 
340.71 
284.92 
283.51 
352.93 
320.00 
332.09 
208.28 
314.07 
275.20 
235.24 
363.75 
233.83 
289.93 
286.01 
336.01 
265.48 
306.86 
272.69 
348.23 
238.53 
273.79 
4302.36 
324.88 
382.08 
4359.57 
311.56 
4285.44 
266.58 
279.90 
338.52 
352.93 
232.42 
323.78 
212.98 
4304.87 
265.48 
219.09 
270.18 
4273.22 
298.24 
386.00 
4317.10 
339.93 
338.52 
242.13 
264.07 
276.61 
259.37 
258.27 
348.23 
303.25 
359.05 
312.97 
338.31 
286.01 
336.01 
293.22 
250.75 
295.73 
279.12 
360.14 
275.20 
247.15 
273.01 
279.90 
292.13 
225.21 
238.53 
244.64 
237.74 
4305.97 
301.84 
227.71 
292.44 
219.09 
333.50 
321.28 
254.67 
338.20 
311.56 
226.62 
275.20 
319.08 
328.80 
309.37 
4250.18 
372.37 
186.34 
243.54 
247.46 
253.26 
261.88 
243.54 
307.44 
309.05 
271.60 
206.09 
293.54 
300.75 
199.98 
347.13 
4280.42 
257.18 
288.52 
203.27 
348.81 
283.51 
254.36 
282.41 
200.58 
219.09 
287.42 
286.01 
12640.63 
4285.44 
262.98 
332.40 
256.86 
337.10 
306.86 
203.58 
217.68 
264.39 
114058.50 
337.10 
168.00 
256.86 
281.31 
276.61 
4205.20 
336.01 
260.78 
261.88 
215.49 
298.24 
279.90 
281.31 
249.65 
243.54 
179.13 
267.99 
246.05 
252.16 
324.10 
248.56 
251.07 
287.42 
247.15 
267.99 
278.49 
284.92 
299.65 
4263.50 
4291.55 
4269.61 
191.04 
287.42 
4279.64 
284.92 
227.71 
224.11 
241.04 
299.33 
290.71 
259.37 
266.89 
230.22 
247.15 
237.74 
260.47 
288.21 
341.02 
330.21 
180.23 
227.40 
216.90 
154.68 
271.60 
245.56 
278.80 
271.60 
176.62 
267.68 
209.38 
223.80 
243.54 
198.56 
177.72 
2240.57 
269.09 
267.68 
4308.48 
4202.69 
282.72 
261.88 
365.16 
247.46 
356.54 
336.01 
233.83 
245.74 
253.57 
210.79 
246.05 
299.33 
199.66 
218.00 
260.47 
242.45 
231.32 
4204.10 
314.07 
154.37 
212.98 
237.43 
203.27 
317.67 
218.00 
306.86 
299.33 
255.77 
265.17 
242.13 
193.55 
249.65 
244.95 
227.71 
275.20 
298.24 
4199.09 
294.95 
264.39 
234.92 
299.33 
189.94 
243.23 
328.48 
307.95 
227.71 
254.36 
274.89 
198.56 
293.54 
219.09 
227.71 
245.74 
249.65 
299.65 
4202.69 
4189.37 
254.36 
199.66 
283.51 
4350.95 
325.19 
174.12 
224.11 
196.06 
141.36 
237.43 
224.11 
257.96 
334.60 
237.43 
248.24 
238.53 
261.57 
303.25 
4164.92 
209.38 
254.36 
205.77 
198.25 
325.91 
169.10 
248.56 
4302.36 
233.83 
267.99 
4200.50 
291.03 
157.19 
186.34 
160.79 
261.88 
254.36 
130.23 
200.89 
219.09 
261.88 
267.68 
4199.09 
256.86 
238.53 
4225.73 
292.13 
237.43 
196.06 
254.36 
231.32 
233.83 
283.51 
183.83 
4183.26 
254.36 
314.96 
2233.10 
189.94 
292.13 
1814.62 
317.46 
292.13 
286.01 
301.64 
286.01 
221.60 
179.13 
205.77 
4267.10 
291.81 
242.13 
260.78 
293.22 
246.97 
213.90 
119.42 
216.07 
232.42 
244.64 
140.26 
4207.39 
209.38 
157.19 
40997.37 
177.72 
215.54 
232.42 
211.39 
160.79 
171.61 
202.17 
208.28 
216.59 
202.17 
165.81 
266.58 
168.00 
191.36 
4231.84 
212.98 
138.85 
246.05 
284.92 
202.17 
3976.75 
189.94 
205.77 
247.15 
180.23 
2534.82 
287.42 
21577.41 
262.98 
171.61 
174.12 
209.38 
274.89 
4295.47 
4201.28 
124.12 
4189.37 
232.42 
210.47 
216.59 
205.77 
147.47 
205.77 
222.70 
171.61 
165.50 
226.30 
231.32 
281.00 
278.80 
257.96 
210.47 
183.83 
244.64 
569.89 
129.14 
258.27 
171.61 
274.38 
239.94 
282.41 
241.04 
176.31 
305.45 
259.37 
159.38 
258.67 
1925.86 
170.51 
264.07 
4178.24 
249.65 
4207.39 
196.06 
183.83 
193.55 
211.89 
250.75 
224.11 
187.44 
502.57 
219.09 
274.89 
277.71 
206.87 
236.02 
271.60 
168.00 
244.64 
221.60 
8271.02 
163.30 
168.00 
144.97 
120.52 
246.05 
159.70 
238.53 
234.92 
156.88 
232.42 
253.26 
199.66 
227.71 
4156.30 
192.45 
203.27 
201.07 
181.32 
185.24 
219.09 
157.19 
193.55 
140.26 
146.06 
144.97 
143.56 
146.06 
215.18 
231.32 
173.02 
228.81 
166.91 
161.89 
184.93 
238.53 
166.91 
138.85 
231.32 
161.89 
241.04 
187.44 
211.89 
211.57 
203.27 
258.27 
4149.09 
127.73 
120.52 
139.95 
233.83 
177.72 
219.09 
233.83 
237.43 
198.56 
171.61 
141.36 
4229.33 
205.77 
214.08 
226.30 
194.65 
211.89 
149.67 
247.15 
168.00 
239.94 
212.98 
237.43 
219.09 
251.85 
271.28 
212.98 
158.29 
203.27 
142.46 
194.65 
142.46 
248.24 
202.17 
239.94 
207.97 
4223.22 
208.28 
229.91 
219.09 
200.76 
186.34 
4266.01 
130.23 
193.55 
159.21 
246.05 
198.25 
164.40 
236.02 
142.46 
210.47 
144.97 
170.51 
347.71 
183.83 
163.30 
200.76 
206.87 
142.46 
126.63 
255.77 
173.02 
578.44 
219.09 
175.21 
169.10 
209.38 
4206.30 
178.82 
178.82 
257.96 
225.21 
175.21 
163.30 
203.27 
165.50 
174.12 
165.50 
129.14 
228.81 
133.84 
180.23 
118.01 
165.50 
184.93 
216.59 
4153.01 
4149.09 
131.64 
220.51 
225.52 
132.74 
139.95 
178.82 
170.51 
147.47 
148.57 
245.74 
160.79 
146.06 
216.59 
181.32 
170.83 
237.43 
181.32 
160.79 
152.17 
104.69 
196.06 
138.85 
236.02 
125.53 
9727.36 
197.15 
222.70 
160.79 
203.27 
126.63 
147.16 
225.21 
148.57 
136.35 
269.09 
193.55 
141.36 
196.06 
168.00 
239.94 
153.27 
160.48 
161.89 
193.55 
147.47 
118.01 
227.40 
246.83 
177.72 
198.25 
176.62 
184.93 
156.88 
304.20 
153.27 
206.87 
135.25 
165.50 
149.67 
146.06 
98.58 
107.20 
1028.95 
170.51 
132.74 
785.30 
180.23 
186.34 
159.38 
189.94 
155.78 
227.71 
222.70 
1285.10 
197.15 
165.81 
133.84 
192.45 
130.23 
137.44 
159.38 
178.82 
184.93 
171.61 
214.08 
176.94 
153.27 
219.09 
223.01 
306.54 
152.17 
226.30 
147.47 
176.62 
181.32 
124.12 
192.14 
98.58 
86.35 
181.32 
165.50 
88.86 
4192.97 
113.31 
210.47 
204.68 
175.21 
182.74 
198.56 
209.38 
131.33 
161.89 
200.76 
157.19 
142.46 
159.38 
136.35 
171.61 
165.50 
166.59 
218.00 
189.94 
171.61 
226.30 
177.72 
169.10 
152.17 
129.14 
155.78 
158.29 
138.85 
268.76 
356.00 
144.97 
138.85 
218.00 
131.64 
149.67 
147.47 
183.83 
134.15 
119.42 
119.42 
176.62 
133.84 
116.91 
183.83 
199.66 
181.32 
135.25 
66.92 
193.55 
189.94 
156.88 
136.35 
186.34 
165.50 
110.80 
78.05 
193.55 
131.64 
238.53 
97.48 
153.27 
143.87 
206.87 
180.23 
154.68 
132.74 
4069.95 
200.76 
148.57 
161.89 
171.61 
165.50 
170.51 
4199.09 
75.54 
118.01 
182.74 
103.59 
165.50 
158.29 
137.44 
138.85 
200.76 
149.98 
123.03 
169.41 
149.67 
4111.32 
130.23 
4174.64 
153.27 
191.04 
170.51 
239.62 
142.46 
79.14 
150.76 
123.03 
166.59 
149.67 
126.63 
171.61 
148.57 
198.25 
137.76 
181.32 
139.95 
148.57 
104.69 
221.60 
229.91 
116.91 
99.67 
119.42 
143.56 
161.89 
132.74 
204.36 
161.89 
127.73 
134.94 
205.77 
137.76 
149.67 
177.72 
164.40 
184.93 
187.44 
170.51 
133.84 
173.02 
157.19 
74.44 
167.69 
208.28 
106.10 
173.02 
204.68 
177.72 
143.87 
168.00 
172.70 
112.21 
178.82 
132.74 
193.55 
91.37 
109.70 
116.91 
139.95 
133.84 
136.35 
165.50 
177.72 
152.17 
121.61 
65.82 
98.58 
147.16 
184.93 
174.12 
160.79 
181.32 
156.88 
159.70 
104.69 
196.06 
178.82 
146.06 
148.57 
281.31 
150.76 
148.57 
130.23 
164.40 
182.42 
116.91 
138.85 
196.06 
143.56 
220.19 
208.28 
183.83 
175.21 
161.89 
152.17 
129.14 
4072.46 
104.69 
196.06 
281.00 
132.74 
144.97 
127.73 
118.01 
101.08 
136.35 
131.33 
97.48 
163.30 
191.04 
144.97 
127.73 
133.84 
127.73 
182.74 
149.67 
158.29 
149.67 
120.52 
158.29 
141.36 
170.51 
75.54 
155.78 
219.09 
186.34 
171.61 
177.72 
4181.85 
133.84 
186.34 
114.41 
120.52 
144.97 
120.52 
160.79 
146.06 
127.73 
130.23 
146.06 
163.30 
130.23 
180.23 
102.18 
116.91 
126.63 
102.18 
115.82 
98.58 
136.35 
108.29 
114.41 
197.47 
168.00 
109.70 
125.53 
96.07 
173.80 
171.61 
107.20 
192.14 
130.23 
79.14 
149.67 
175.21 
173.02 
139.95 
180.23 
69.43 
91.37 
126.63 
94.97 
125.53 
148.57 
136.35 
131.33 
131.64 
155.78 
170.51 
112.21 
118.01 
92.46 
164.40 
113.31 
78.05 
155.78 
161.89 
126.63 
152.17 
163.30 
120.52 
79.14 
143.56 
158.29 
192.45 
139.95 
186.03 
124.12 
142.46 
126.63 
146.06 
94.97 
152.17 
189.94 
116.91 
132.74 
116.91 
152.17 
113.31 
162.99 
142.46 
147.47 
164.40 
211.57 
153.27 
104.69 
150.76 
86.35 
109.39 
169.41 
139.95 
104.69 
183.83 
4099.10 
73.03 
127.73 
114.41 
171.61 
104.69 
147.16 
161.89 
86.67 
136.35 
115.50 
142.46 
131.64 
114.41 
175.53 
93.88 
130.23 
129.14 
4123.55 
162.99 
93.88 
178.82 
136.35 
101.08 
158.29 
147.16 
120.52 
129.14 
126.63 
169.10 
205.77 
174.12 
125.22 
149.67 
139.95 
82.75 
155.78 
194.65 
178.82 
4218.52 
149.98 
137.44 
94.97 
220.19 
4134.68 
171.61 
132.74 
153.27 
101.08 
105.79 
97.48 
118.01 
108.29 
126.63 
121.61 
120.52 
107.20 
194.65 
163.30 
158.29 
69.43 
123.03 
124.44 
141.05 
112.21 
105.79 
119.42 
160.79 
159.38 
205.46 
115.50 
91.37 
138.85 
94.97 
79.14 
175.21 
120.52 
104.69 
194.65 
125.53 
104.69 
113.31 
103.59 
90.27 
138.85 
159.38 
113.31 
166.91 
62.22 
98.58 
104.69 
188.53 
162.99 
159.70 
93.88 
115.50 
130.23 
192.45 
108.29 
169.10 
111.90 
175.21 
155.78 
103.59 
205.77 
127.73 
196.06 
114.41 
108.29 
152.17 
129.14 
85.26 
110.80 
155.78 
211.89 
91.37 
123.03 
166.91 
108.29 
92.46 
142.46 
101.08 
108.29 
187.44 
75.54 
75.54 
187.44 
139.95 
69.43 
62.22 
79.14 
139.95 
88.86 
102.50 
139.95 
85.26 
127.73 
162.99 
200.76 
80.24 
194.65 
123.03 
175.53 
98.58 
107.20 
4127.15 
118.01 
184.93 
139.95 
109.70 
138.85 
110.80 
123.03 
130.23 
107.20 
120.52 
75.54 
93.88 
138.85 
124.12 
130.23 
108.29 
158.29 
149.67 
92.46 
93.88 
108.29 
144.65 
161.89 
189.94 
138.85 
103.59 
168.00 
57.20 
114.41 
143.56 
92.46 
88.86 
105.79 
93.88 
108.29 
84.16 
125.53 
136.35 
155.78 
128.82 
126.63 
116.91 
108.29 
104.69 
144.97 
173.02 
182.42 
127.73 
123.03 
162.99 
158.29 
152.17 
152.17 
116.91 
101.08 
165.50 
97.48 
132.74 
182.42 
120.52 
155.78 
82.75 
88.86 
69.43 
98.58 
96.07 
91.37 
104.69 
135.25 
107.20 
101.08 
148.57 
110.80 
115.50 
53.60 
123.03 
170.20 
136.35 
150.76 
79.14 
126.63 
96.07 
169.10 
159.38 
88.86 
147.16 
139.95 
123.03 
113.31 
101.08 
89.96 
120.52 
74.44 
125.53 
107.20 
88.86 
148.57 
110.80 
73.03 
148.57 
132.74 
144.97 
131.33 
150.76 
84.16 
142.46 
132.74 
85.26 
149.67 
4105.21 
102.18 
107.20 
123.03 
113.31 
183.83 
96.07 
106.10 
91.37 
124.12 
138.85 
107.20 
169.10 
98.58 
186.34 
115.50 
154.68 
125.22 
147.16 
114.41 
63.31 
115.82 
113.31 
96.38 
63.31 
94.97 
59.71 
80.24 
143.56 
111.90 
188.53 
66.92 
63.31 
98.58 
88.86 
104.69 
113.31 
79.14 
82.75 
152.17 
165.50 
116.91 
152.17 
130.23 
92.46 
85.26 
110.80 
107.20 
91.37 
152.17 
123.03 
153.27 
158.29 
150.76 
102.18 
135.25 
96.07 
133.84 
146.06 
132.74 
91.37 
125.53 
129.14 
114.41 
136.35 
88.86 
53.60 
88.86 
71.93 
49.99 
86.35 
37.77 
118.01 
119.42 
91.37 
159.38 
82.75 
79.14 
144.65 
137.44 
132.74 
110.80 
47.49 
126.63 
92.46 
75.54 
152.17 
148.57 
102.18 
163.30 
143.56 
115.50 
65.82 
126.63 
165.50 
75.54 
111.90 
94.97 
94.97 
97.48 
83.84 
76.64 
119.42 
129.14 
119.42 
115.50 
105.79 
106.10 
92.46 
111.90 
87.76 
120.52 
104.69 
124.12 
96.07 
57.20 
69.43 
110.80 
69.43 
105.79 
65.82 
127.73 
94.97 
171.61 
121.61 
107.20 
125.22 
136.35 
152.17 
120.52 
82.75 
97.48 
96.38 
108.29 
75.54 
146.06 
121.93 
113.31 
156.88 
88.86 
51.09 
116.91 
105.79 
126.63 
49.99 
92.46 
82.75 
111.90 
79.14 
127.73 
124.12 
184.93 
63.31 
68.33 
123.03 
85.26 
171.61 
79.14 
164.09 
125.53 
94.97 
110.80 
113.31 
108.29 
172.70 
66.92 
89.96 
81.65 
84.16 
102.18 
15.83 
164.40 
112.21 
66.92 
53.60 
82.75 
102.18 
135.25 
46.39 
136.35 
98.58 
92.46 
142.46 
86.35 
98.58 
116.91 
139.95 
114.41 
81.65 
114.41 
107.20 
75.54 
91.37 
118.01 
94.97 
127.73 
127.73 
4128.56 
110.80 
98.58 
119.42 
108.29 
91.37 
75.54 
79.14 
120.52 
75.54 
98.58 
136.35 
129.14 
101.08 
88.86 
120.52 
152.17 
104.69 
92.46 
82.75 
148.57 
128.82 
106.10 
130.23 
4066.34 
141.05 
81.65 
94.97 
85.26 
92.46 
53.60 
120.52 
101.08 
79.14 
118.01 
97.48 
69.43 
79.14 
65.82 
79.14 
114.41 
105.79 
101.08 
85.26 
141.05 
104.69 
119.42 
98.58 
93.56 
47.49 
85.26 
110.80 
64.41 
98.58 
174.12 
134.94 
110.80 
110.80 
91.37 
121.61 
125.22 
76.64 
59.71 
121.61 
162.99 
152.17 
101.08 
86.35 
177.72 
108.29 
76.64 
92.46 
88.86 
96.07 
111.90 
96.07 
146.06 
159.38 
85.26 
86.35 
148.26 
82.75 
98.58 
97.48 
63.31 
86.35 
104.69 
59.71 
82.75 
91.37 
101.08 
130.23 
120.52 
78.05 
116.91 
65.82 
130.23 
104.69 
75.54 
73.03 
85.26 
66.92 
85.26 
94.97 
104.69 
123.03 
76.64 
109.39 
86.35 
79.14 
116.91 
88.86 
133.84 
138.85 
4084.68 
143.56 
91.37 
66.92 
114.41 
97.48 
103.59 
51.09 
88.86 
130.23 
85.26 
101.08 
90.27 
118.01 
40.28 
92.46 
99.99 
53.60 
43.88 
78.05 
92.46 
108.29 
85.26 
159.38 
98.58 
96.07 
138.85 
108.29 
66.92 
108.29 
65.82 
102.18 
104.69 
73.03 
49.99 
97.48 
69.43 
66.92 
81.65 
114.41 
107.20 
114.41 
110.80 
86.35 
97.48 
105.79 
69.43 
104.69 
99.67 
76.64 
101.08 
92.46 
133.84 
101.08 
104.69 
87.76 
59.71 
141.05 
131.33 
129.14 
98.58 
82.75 
54.70 
80.24 
63.31 
114.41 
74.13 
76.64 
41.37 
144.97 
104.69 
91.37 
99.67 
60.81 
37.77 
94.97 
126.63 
105.79 
82.75 
104.69 
109.70 
74.13 
57.20 
79.14 
124.12 
47.49 
47.49 
108.29 
73.03 
101.08 
101.08 
108.29 
75.54 
94.97 
31.66 
147.16 
85.26 
59.71 
110.80 
57.20 
88.86 
85.26 
66.92 
41.37 
51.09 
136.35 
115.50 
111.90 
71.93 
88.86 
78.05 
102.18 
88.86 
124.12 
139.95 
125.22 
47.49 
88.86 
99.99 
51.09 
138.85 
143.56 
60.81 
66.92 
82.75 
86.35 
120.02 
94.97 
108.29 
73.03 
124.12 
118.01 
59.71 
94.97 
75.54 
98.58 
105.79 
162.99 
34.17 
21.94 
79.14 
85.26 
110.80 
97.48 
82.75 
97.48 
76.64 
88.86 
44.98 
116.91 
133.84 
63.31 
66.92 
126.63 
50.95 
108.29 
92.46 
84.16 
59.71 
149.67 
98.72 
43.88 
96.07 
49.99 
82.75 
109.70 
73.03 
41.37 
73.03 
81.65 
63.31 
75.54 
82.25 
114.41 
111.90 
107.20 
53.60 
25.55 
70.52 
118.01 
76.64 
118.01 
97.48 
31.66 
57.20 
73.03 
63.31 
122.71 
94.97 
93.56 
111.90 
107.20 
65.82 
85.26 
41.37 
94.97 
80.24 
123.03 
98.58 
92.46 
133.84 
69.43 
64.41 
58.30 
97.48 
100.63 
69.43 
15.83 
98.58 
63.31 
57.20 
75.54 
60.81 
51.09 
97.48 
121.61 
28.05 
118.01 
92.46 
75.54 
63.31 
94.97 
114.41 
101.08 
66.92 
94.97 
63.31 
104.69 
47.49 
80.24 
103.59 
62.22 
92.46 
121.93 
75.54 
79.14 
47.49 
85.26 
121.61 
136.35 
76.64 
62.22 
101.08 
4055.22 
73.03 
43.88 
98.58 
80.24 
64.41 
44.98 
79.14 
43.88 
93.88 
25.55 
49.99 
141.05 
69.43 
104.69 
92.46 
47.49 
89.96 
64.41 
54.70 
96.07 
54.70 
96.07 
108.29 
88.86 
85.26 
115.50 
91.37 
49.99 
70.52 
47.49 
78.05 
114.41 
105.79 
57.20 
91.37 
156.88 
86.35 
85.26 
86.35 
118.01 
81.65 
65.82 
96.07 
60.81 
92.46 
92.46 
77.59 
131.33 
110.80 
80.24 
76.64 
92.46 
53.60 
15.83 
116.91 
60.81 
28.05 
98.58 
82.75 
108.29 
102.18 
125.22 
70.52 
101.08 
102.18 
70.52 
66.92 
93.56 
57.20 
88.86 
93.56 
102.18 
60.81 
104.69 
47.49 
115.50 
102.18 
59.71 
73.03 
68.33 
69.43 
92.46 
64.41 
69.43 
60.81 
118.01 
2981.97 
124.12 
83.84 
86.35 
60.81 
53.60 
88.86 
44.98 
60.81 
92.46 
76.64 
166.59 
88.86 
76.64 
65.82 
49.99 
98.58 
60.81 
102.18 
4051.61 
82.75 
41.37 
124.12 
5847.85 
69.43 
92.46 
98.58 
59.71 
60.81 
92.46 
138.85 
31.66 
80.24 
114.41 
88.86 
85.26 
78.05 
86.35 
92.46 
73.03 
79.14 
79.14 
69.43 
57.20 
80.24 
57.20 
63.31 
60.81 
76.64 
53.60 
102.18 
88.86 
94.97 
91.37 
53.60 
66.92 
120.52 
35.26 
124.12 
76.64 
98.58 
121.61 
47.49 
126.63 
79.14 
53.60 
73.03 
82.75 
73.03 
63.31 
6.11 
82.75 
56.11 
47.49 
131.33 
104.69 
53.60 
60.81 
120.52 
57.20 
147.16 
63.31 
82.75 
65.82 
51.09 
41.37 
63.31 
76.64 
68.02 
116.91 
88.86 
86.35 
92.46 
79.14 
31.66 
35.26 
76.64 
94.97 
76.64 
71.93 
76.64 
73.03 
69.43 
60.81 
25.55 
52.50 
76.64 
41.37 
64.41 
76.64 
4096.45 
108.29 
82.75 
103.28 
69.43 
98.58 
88.86 
83.84 
41.37 
104.69 
79.14 
53.60 
47.49 
60.81 
43.88 
115.50 
79.14 
76.64 
73.03 
120.52 
88.86 
57.20 
82.75 
65.82 
46.39 
89.96 
88.86 
38.87 
41.37 
85.26 
98.58 
47.49 
96.07 
4111.32 
38.87 
63.31 
59.71 
87.76 
87.76 
102.18 
65.82 
57.20 
69.43 
85.26 
48.09 
124.12 
74.13 
66.92 
57.20 
102.18 
57.20 
49.99 
118.01 
105.79 
51.09 
70.52 
76.64 
56.11 
114.41 
96.07 
47.49 
114.41 
92.46 
44.98 
89.96 
66.92 
51.09 
66.92 
66.92 
123.03 
120.52 
51.09 
73.03 
88.86 
116.91 
74.44 
43.88 
31.66 
118.01 
82.75 
94.97 
59.71 
41.37 
119.11 
71.93 
28.05 
69.43 
57.20 
37.77 
108.29 
80.24 
146.06 
44.98 
85.26 
37.77 
89.96 
70.52 
86.35 
37.77 
86.35 
92.46 
80.24 
60.81 
89.96 
59.71 
80.24 
66.92 
76.64 
51.09 
111.90 
115.50 
125.22 
69.43 
41.37 
66.92 
31.66 
57.20 
66.92 
56.11 
74.13 
44.98 
91.37 
57.20 
73.03 
41.37 
94.97 
57.20 
51.09 
65.82 
21.94 
53.60 
73.03 
57.20 
73.03 
78.05 
63.31 
60.81 
138.54 
73.03 
82.75 
131.33 
69.43 
57.20 
65.82 
54.70 
54.70 
76.64 
66.92 
41.37 
94.97 
38.87 
76.64 
105.79 
76.64 
79.14 
86.35 
34.17 
60.81 
35.26 
57.20 
65.82 
60.81 
97.48 
73.03 
43.88 
79.14 
105.79 
57.20 
73.03 
59.71 
75.54 
57.20 
21.94 
31.66 
73.03 
77.73 
81.65 
74.13 
41.37 
51.09 
97.48 
78.05 
82.75 
60.81 
79.14 
86.35 
60.81 
56.11 
31.66 
88.86 
156.88 
63.31 
109.39 
86.35 
80.24 
66.92 
54.70 
51.09 
38.87 
88.86 
63.31 
109.70 
118.01 
85.26 
44.98 
88.86 
64.41 
41.37 
59.71 
25.55 
89.96 
66.92 
98.58 
94.97 
99.99 
92.46 
76.64 
53.60 
80.24 
92.46 
64.41 
63.31 
69.43 
59.71 
43.88 
53.60 
87.76 
80.24 
34.17 
44.98 
73.03 
127.73 
63.31 
85.26 
82.75 
47.49 
57.20 
88.86 
66.92 
82.75 
53.60 
53.60 
102.18 
31.66 
88.86 
89.96 
73.03 
53.60 
80.24 
89.96 
43.88 
43.88 
63.31 
29.15 
76.64 
89.96 
47.49 
69.43 
48.58 
51.09 
43.88 
68.33 
41.37 
34.17 
51.09 
65.82 
58.30 
47.49 
47.49 
63.31 
44.98 
47.49 
73.03 
96.07 
43.88 
82.75 
21.94 
53.60 
73.03 
41.37 
69.43 
51.09 
60.81 
31.66 
25.55 
73.03 
35.26 
28.05 
85.26 
511.57 
44.98 
41.37 
59.71 
1231.96 
60.81 
35.26 
60.81 
31.66 
35.26 
81.65 
104.69 
31.66 
88.86 
76.64 
63.31 
82.75 
73.03 
54.70 
82.75 
25.55 
43.88 
28.05 
60.81 
63.31 
53.60 
41.37 
70.52 
43.88 
108.29 
53.60 
53.60 
66.92 
54.70 
63.31 
24.45 
82.75 
60.81 
89.96 
102.18 
31.66 
57.20 
57.20 
4057.72 
60.81 
57.20 
96.07 
68.02 
94.97 
75.54 
65.82 
57.20 
41.37 
76.64 
41.37 
51.09 
70.52 
57.20 
31.66 
47.49 
64.41 
92.46 
64.41 
37.77 
73.03 
51.09 
66.92 
4089.38 
43.88 
358.60 
70.37 
83.84 
57.20 
60.81 
66.92 
65.82 
108.29 
51.09 
82.75 
49.99 
38.87 
98.58 
25.55 
102.18 
35.26 
60.81 
41.37 
80.24 
63.31 
51.09 
73.03 
57.20 
70.52 
69.43 
47.49 
86.35 
37.77 
57.20 
4063.84 
94.97 
44.98 
51.09 
79.14 
21.94 
60.81 
92.46 
51.09 
57.20 
35.26 
77.73 
47.49 
57.20 
80.24 
47.49 
92.46 
31.66 
59.71 
54.70 
86.35 
80.24 
28.05 
21.94 
69.43 
91.37 
49.99 
37.77 
49.99 
63.31 
43.88 
82.75 
57.20 
51.09 
38.87 
79.14 
43.88 
41.37 
59.71 
64.41 
41.37 
53.60 
138.54 
66.92 
66.92 
76.64 
74.13 
69.43 
53.60 
79.14 
83.84 
73.03 
54.70 
41.37 
28.05 
60.81 
31.66 
110.80 
31.66 
80.24 
51.09 
70.52 
73.03 
59.71 
59.71 
47.49 
21.94 
44.98 
70.52 
76.64 
88.86 
34.17 
15.83 
57.20 
75.54 
21.94 
44.98 
59.71 
41.37 
102.18 
64.41 
46.39 
38.87 
87.76 
65.82 
51.09 
63.31 
47.49 
57.20 
21.94 
15.83 
41.37 
98.58 
76.64 
49.99 
80.24 
41.37 
35.26 
60.81 
89.96 
52.50 
75.54 
37.77 
37.77 
35.26 
44.98 
124.12 
54.70 
51.09 
75.54 
102.18 
43.88 
21.94 
82.75 
96.07 
62.22 
98.58 
73.03 
60.81 
35.26 
47.49 
29.15 
89.96 
43.88 
57.20 
88.86 
35.26 
79.14 
28.05 
41.37 
56.11 
35.26 
70.52 
74.13 
4067.44 
81.65 
47.49 
60.81 
54.70 
64.41 
57.20 
86.35 
19.43 
75.54 
53.60 
51.09 
28.05 
108.29 
82.75 
85.26 
44.98 
89.96 
48.58 
53.60 
63.31 
69.43 
41.37 
51.09 
69.43 
47.49 
57.20 
44.98 
51.09 
63.31 
49.99 
82.75 
49.99 
82.75 
63.31 
51.09 
66.92 
54.70 
63.31 
79.14 
40.28 
25.55 
73.03 
65.82 
21.94 
54.70 
83.84 
85.26 
37.77 
54.70 
47.49 
43.88 
92.46 
89.96 
59.71 
63.31 
87.45 
29.15 
73.03 
34.17 
59.71 
96.07 
47.49 
54.70 
51.09 
81.65 
35.26 
12.22 
44.98 
57.20 
35.26 
25.55 
73.03 
64.41 
63.31 
86.35 
63.31 
76.64 
25.55 
25.55 
37.77 
76.64 
44.98 
76.64 
54.70 
57.20 
28.05 
49.99 
37.77 
29.15 
57.20 
74.13 
25.55 
38.87 
47.49 
36.67 
60.81 
51.09 
41.37 
48.58 
92.46 
82.75 
47.49 
59.71 
44.98 
60.81 
28.05 
43.88 
73.03 
53.60 
76.64 
59.71 
29.15 
53.60 
60.81 
63.31 
57.20 
76.64 
47.49 
41.37 
35.26 
35.26 
9.72 
53.60 
51.09 
31.66 
70.52 
53.60 
60.81 
99.67 
53.60 
43.88 
47.49 
41.37 
41.37 
9.72 
38.87 
98.58 
66.92 
29.15 
66.92 
51.09 
63.31 
54.70 
76.64 
54.70 
44.98 
0.10 
31.66 
31.66 
38.87 
66.92 
25.55 
25.55 
92.46 
69.43 
57.20 
35.26 
38.87 
28.05 
38.87 
19.43 
44.98 
21.94 
47.49 
51.09 
31.66 
31.66 
48.58 
31.66 
66.92 
70.52 
88.86 
43.88 
49.99 
54.70 
15.83 
46.39 
21.94 
60.81 
48.58 
54.70 
41.37 
9.72 
64.41 
21.94 
34.17 
41.37 
40.28 
53.60 
19.43 
25.55 
57.20 
47.49 
34.17 
35.26 
31.66 
65.82 
41.37 
15.83 
19.43 
38.87 
6.11 
31.66 
18.34 
40.28 
47.49 
60.81 
51.09 
38.87 
28.05 
21.94 
48.58 
47.49 
29.15 
15.83 
63.31 
28.05 
60.81 
51.09 
54.70 
41.37 
25.55 
85.26 
43.88 
19.43 
53.60 
63.31 
12.22 
24.45 
41.37 
19.43 
57.20 
21.94 
9.72 
31.66 
63.31 
21.94 
54.70 
19.43 
44.98 
29.15 
15.83 
40.28 
54.70 
41.37 
21.94 
43.88 
37.77 
76.64 
44.98 
19.43 
49.99 
64.41 
64.41 
49.99 
41.37 
31.66 
31.66 
66.92 
25.55 
15.83 
43.88 
74.13 
47.49 
54.70 
70.52 
9.72 
21.94 
25.55 
41.37 
35.26 
19.43 
19.43 
28.05 
38.87 
0.10 
25.55 
35.26 
41.37 
35.26 
24.45 
57.20 
75.54 
19.43 
25.55 
44.98 
74.13 
41.37 
54.70 
29.15 
76.64 
9.72 
38.87 
43.88 
63.31 
37.77 
35.26 
66.92 
31.66 
41.37 
9.72 
60.81 
43.88 
21.94 
44.98 
54.70 
35.26 
21.94 
19.43 
15.83 
37.77 
51.09 
35.26 
25.55 
19.43 
59.71 
41.37 
31.66 
25.55 
43.88 
31.66 
29.15 
19.43 
25.55 
31.66 
29.15 
73.03 
38.87 
48.58 
49.99 
35.26 
19.43 
82.75 
41.37 
53.60 
41.37 
19.43 
51.09 
15.83 
12.22 
19.43 
96.07 
80.24 
25.55 
28.05 
6.11 
6.11 
37.77 
28.05 
29.15 
31.66 
68.02 
25.55 
0.10 
47.49 
63.31 
38.87 
35.26 
37.77 
19.43 
35.26 
19.43 
15.83 
41.37 
19.43 
15.83 
44.98 
35.26 
25.55 
19.43 
18.34 
54.70 
89.96 
28.05 
9.72 
48.58 
25.55 
25.55 
25.55 
51.09 
38.87 
12.22 
18.34 
9.72 
12.22 
35.26 
25.55 
25.55 
35.26 
12.22 
41.37 
6.11 
9.72 
19.43 
19.43 
35.26 
44.98 
0.10 
15.83 
28.05 
29.15 
15.83 
0.10 
12.22 
38.87 
9.72 
19.43 
35.26 
25.55 
31.66 
15.83 
41.37 
25.55 
38.87 
0.10 
19.43 
29.15 
9.72 
19.43 
29.15 
38.87 
9.72 
15.83 
9.72 
19.43 
9.72 
19.43 
6.11 
15.83 
0.10 
29.15 
19.43 
9.72 
19.43 
48.58 
9.72 
29.15 
44.98 
9.72 
0.10 
15.83 
6.11 
19.43 
0.10 
19.43 
9.72 
9.72 
9.72 
0.10 
0.10 
9.72 
0.10 
0.10 
0.10 
29.15 
0.10 
0.10 
0.10 
0.10 
0.10 
0.10 
#ENDOFDATA   : 
