#FORMAT      : EMSA/MAS Spectral Data File
#VERSION     : 1.0
#TITLE       : 20-nm-C-coated-EagleXG
#DATE        : 22-Jul-2018
#TIME        : 00:32:16
#OWNER       : Penepma
#NPOINTS     : 4096
#NCOLUMNS    : 1
#XUNITS      : keV
#YUNITS      : counts
#DATATYPE    : Y
#XPERCHAN    : 0.0036621
#OFFSET      : 0.0
#BEAMKV      : 15
#XLABEL      : Energy [keV]
#YLABEL      : Counts
#SPECTRUM    : 
0.10 
0.10 
0.10 
0.10 
0.10 
0.10 
0.10 
0.10 
0.10 
0.10 
0.10 
0.10 
0.10 
254.81 
768.44 
792.86 
955.19 
1053.28 
990.67 
1053.30 
1349.42 
1111.92 
1179.54 
1441.42 
1164.90 
12351.43 
1289.03 
1478.03 
1284.60 
1176.94 
1233.64 
1080.54 
1117.61 
1731.56 
1040.91 
1074.94 
1030.00 
1122.44 
1099.43 
1664.65 
1145.69 
1109.45 
1043.86 
1112.97 
1120.99 
1109.70 
1109.24 
1108.32 
1066.49 
1171.23 
1203.46 
1159.41 
1155.26 
1358.33 
1210.29 
1158.35 
1155.82 
1186.78 
1240.53 
1232.66 
1086.86 
1178.83 
1383.60 
1242.02 
1241.95 
1267.99 
1313.66 
1373.75 
1323.79 
1337.41 
1430.12 
1275.02 
1770.42 
1428.92 
1389.69 
1507.94 
1586.62 
567997.40 
1169.54 
352.62 
341.08 
407.16 
5571.43 
2128.82 
465.70 
467.36 
457.47 
521.86 
445.72 
539.59 
514.54 
590.68 
603.56 
638.53 
589.91 
1937.89 
598.63 
574.14 
557.32 
610.88 
651.76 
662.81 
667.10 
757.38 
768.15 
787.61 
780.86 
780.29 
783.78 
921.17 
862.44 
1352.00 
981.30 
1842.14 
939.43 
961.81 
1086.36 
1020.26 
1072.64 
1136.67 
1099.24 
1181.18 
1075.24 
1094.38 
1183.82 
1286.07 
1251.52 
1209.15 
1258.27 
1258.06 
1393.94 
1414.70 
1439.26 
1465.23 
1499.85 
1455.44 
1607.16 
1424.55 
1476.20 
1641.43 
1557.48 
1595.13 
1771292.00 
1518.00 
2137.53 
1629.33 
1610.47 
618.69 
560.28 
582.02 
596.59 
625.86 
623.33 
714.11 
604.89 
686.52 
642.05 
605.11 
613.90 
681.10 
630.44 
633.43 
675.05 
691.87 
1527.92 
707.70 
716.01 
790.43 
747.22 
782.15 
749.64 
785.15 
779.90 
748.17 
807.84 
780.75 
834.86 
787.92 
787.71 
847.67 
802.63 
911.84 
915.64 
910.93 
957.02 
913.64 
958.43 
814.10 
862.30 
902.63 
1023.80 
893.41 
935.67 
1037.17 
941.61 
926.59 
928.31 
1075.17 
891.01 
974.89 
1051.60 
1011.20 
1076.72 
1046.25 
1060.67 
1043.22 
1062.15 
1006.70 
1175.16 
1144.31 
1049.48 
1077.07 
1146.66 
1080.98 
1105.99 
1174.11 
1067.50 
1072.57 
1188.25 
1159.96 
1181.22 
1187.10 
1178.16 
1213.80 
1279.38 
1295.78 
1255.67 
1214.71 
1271.78 
1217.03 
1158.28 
1297.32 
1272.69 
1273.79 
1339.26 
1242.37 
1309.50 
1281.00 
1313.02 
1295.63 
1296.06 
1315.48 
1411.11 
1358.80 
1284.87 
1782.73 
1332.72 
1359.81 
1390.42 
1293.52 
1376.32 
1379.59 
1440.24 
1383.81 
1449.11 
1300.07 
1396.62 
1412.66 
1331.88 
1485.14 
1357.07 
1461.49 
1448.83 
1384.55 
1468.39 
1363.89 
1483.31 
1471.84 
1486.05 
1443.27 
1475.36 
1459.60 
1561.84 
1492.53 
1491.12 
1556.42 
1510.72 
1589.75 
1851.06 
1526.87 
1569.79 
2402.79 
1615.95 
1551.50 
1655.36 
1413.01 
1562.12 
1576.69 
1625.38 
1546.01 
1624.33 
1578.42 
1581.12 
1577.53 
1667.25 
1695.54 
1561.91 
1669.37 
1533.90 
1591.18 
1523.49 
1571.27 
1476.06 
1528.28 
1633.76 
2555.35 
1637.63 
1470.96 
1603.43 
1717.29 
1590.41 
1604.98 
1696.11 
1673.94 
1631.30 
1601.74 
1640.65 
1798.04 
1708.49 
1724.11 
1658.74 
1644.81 
1654.31 
1594.00 
1641.22 
1641.85 
1697.37 
1608.21 
1709.26 
1585.84 
1696.53 
1807.85 
1639.36 
1727.35 
1625.52 
1709.83 
1673.94 
1635.59 
1772.66 
1632.98 
1550.93 
1665.63 
62805.88 
1704.48 
1724.39 
1703.56 
1739.00 
1715.81 
1694.70 
1679.64 
2123.43 
1721.16 
1682.88 
1634.46 
1711.66 
1737.20 
1543.83 
1547.35 
1800.53 
1570.00 
1701.24 
1663.59 
1634.46 
1649.49 
1675.14 
1520.01 
1618.07 
1707.57 
1674.29 
1736.64 
1706.94 
1595.20 
1576.20 
1657.33 
1663.31 
1621.94 
1596.18 
1613.42 
1528.31 
1718.75 
1633.26 
1657.47 
1675.77 
1695.89 
1639.18 
1645.09 
1657.61 
1615.11 
1548.89 
1672.46 
1579.15 
1632.42 
1549.17 
1603.29 
1709.05 
1688.22 
1687.38 
1662.05 
1576.48 
1742.62 
1594.91 
1539.04 
1698.36 
1781.22 
1717.07 
757698.50 
1513.85 
1686.18 
1654.59 
1645.44 
1773.79 
1695.05 
1586.96 
1667.39 
1525.46 
1582.18 
1530.46 
1570.07 
1578.59 
1632.07 
1623.45 
1587.81 
1654.66 
1657.68 
1582.46 
7742.89 
1726.29 
1532.85 
1503.72 
1559.94 
1524.26 
1515.33 
4017.30 
1386.97 
1509.95 
1419.98 
1509.63 
1408.62 
1471.35 
1465.44 
1486.83 
1471.42 
1427.08 
1378.36 
1373.64 
1507.02 
1454.74 
1426.24 
1513.50 
1475.22 
2015.15 
1403.93 
1568.81 
1410.83 
1486.48 
1473.17 
1434.19 
1411.04 
1412.87 
1488.02 
1343.35 
1437.50 
1454.67 
1378.39 
1445.87 
1399.78 
1479.65 
1395.04 
1286.63 
1426.49 
1370.65 
1416.11 
1363.26 
1318.72 
823244.40 
1679878.00 
1400.13 
1346.30 
1425.96 
1324.63 
1380.15 
1363.23 
1439.54 
1437.22 
1300.21 
1481.17 
1450.56 
1483.24 
1337.72 
1427.12 
1345.74 
1470.85 
3082.18 
16420.78 
1319.91 
1390.56 
1342.71 
1432.15 
1359.67 
1323.68 
1346.02 
44334.19 
1341.58 
1161.23 
1212.32 
1057.22 
1055.75 
1099.09 
1095.58 
987.14 
1123.79 
8302.74 
1111.24 
1040.34 
1061.94 
1058.07 
1019.44 
1021.05 
1036.68 
1090.51 
1086.36 
1100.01 
981.79 
975.53 
1010.85 
1084.18 
1099.16 
1013.81 
1054.87 
1069.12 
966.31 
984.30 
997.27 
1099.66 
1008.18 
1045.33 
1064.33 
1139.84 
1095.93 
1073.83 
1040.55 
1090.86 
1149.90 
1046.74 
1046.81 
990.37 
1021.55 
1062.22 
1078.62 
1048.36 
1002.62 
1023.94 
1023.59 
1070.88 
1030.27 
1002.90 
1099.45 
959.01 
1034.42 
1081.01 
958.57 
1073.34 
997.48 
1068.84 
1019.22 
1056.10 
1104.16 
934.85 
1080.94 
978.55 
1087.55 
1082.21 
987.42 
1004.10 
1115.21 
1032.88 
1078.12 
1132.73 
1069.75 
973.45 
1056.07 
1025.14 
1019.29 
1050.75 
1024.86 
1025.21 
1085.51 
973.77 
1022.25 
966.66 
953.85 
923.87 
896.19 
1307.21 
1012.12 
1093.75 
1053.42 
982.98 
1047.80 
981.51 
989.81 
1033.51 
1026.05 
986.22 
1006.77 
1063.21 
908.39 
1059.33 
912.55 
1028.80 
961.87 
1005.29 
1029.08 
942.94 
951.81 
953.01 
971.73 
1032.60 
1018.03 
1062.01 
988.05 
915.29 
976.44 
1079.81 
1028.16 
1051.60 
977.07 
953.01 
996.28 
1028.44 
1073.34 
956.46 
972.01 
949.14 
991.36 
1048.99 
911.14 
949.49 
932.67 
964.62 
895.38 
960.68 
1089.21 
990.44 
936.33 
998.11 
1048.64 
968.49 
941.68 
871.94 
950.90 
956.88 
966.10 
990.44 
907.55 
1016.55 
890.38 
928.66 
980.03 
1026.40 
906.92 
1022.81 
904.81 
986.57 
872.51 
921.76 
967.57 
904.52 
962.86 
1003.81 
986.86 
944.99 
971.73 
977.36 
980.66 
1029.61 
937.32 
947.66 
942.87 
948.29 
911.95 
916.49 
931.33 
904.31 
949.77 
940.55 
854.91 
888.83 
942.87 
835.35 
905.72 
953.64 
962.23 
925.07 
895.02 
980.94 
1000.58 
993.12 
998.75 
976.16 
843.94 
906.07 
914.09 
906.70 
938.44 
936.96 
1017.75 
920.00 
990.73 
944.99 
923.31 
824.65 
904.88 
913.18 
1034.07 
879.89 
867.44 
877.57 
890.03 
810.44 
981.79 
842.18 
916.49 
886.16 
966.66 
860.96 
907.83 
861.88 
907.62 
841.54 
952.66 
816.63 
898.12 
848.44 
882.82 
893.62 
875.18 
883.13 
827.40 
847.81 
923.59 
837.18 
800.03 
866.59 
813.68 
967.26 
894.81 
864.76 
909.66 
882.36 
849.00 
870.75 
857.66 
868.00 
793.76 
946.18 
762.59 
950.69 
923.03 
753.37 
890.94 
868.28 
931.05 
791.72 
877.85 
869.27 
791.06 
865.96 
868.92 
915.57 
878.77 
867.44 
890.94 
902.27 
897.20 
784.33 
871.38 
860.33 
812.48 
815.15 
840.98 
789.33 
749.22 
843.09 
787.50 
831.20 
905.79 
768.78 
869.83 
934.29 
812.48 
785.46 
807.77 
851.96 
767.59 
842.53 
821.14 
744.43 
846.33 
876.38 
836.55 
813.11 
832.75 
851.11 
860.68 
879.40 
836.27 
824.94 
704.04 
743.59 
811.35 
788.77 
805.09 
766.53 
805.94 
762.31 
834.22 
816.91 
817.83 
802.98 
780.11 
841.40 
818.74 
784.33 
731.98 
834.15 
789.33 
740.28 
810.16 
818.74 
748.66 
826.51 
866.59 
752.81 
823.81 
747.46 
832.75 
815.72 
719.24 
836.27 
807.77 
781.31 
729.94 
753.65 
731.06 
721.28 
700.77 
871.03 
786.09 
807.41 
756.61 
787.50 
692.50 
818.11 
745.98 
755.20 
697.78 
767.66 
794.96 
797.63 
722.76 
768.57 
768.50 
729.02 
740.92 
707.91 
798.83 
821.42 
754.29 
764.07 
709.86 
688.00 
742.67 
706.43 
715.09 
835.98 
753.37 
783.07 
787.57 
675.54 
735.85 
679.41 
799.11 
716.57 
766.46 
721.28 
712.98 
775.40 
778.35 
736.76 
701.37 
772.72 
793.20 
806.12 
693.98 
680.61 
705.24 
696.09 
659.78 
716.22 
764.98 
778.00 
663.65 
683.81 
700.45 
762.87 
641.69 
713.89 
687.43 
733.17 
696.37 
757.87 
655.07 
639.87 
649.44 
672.87 
683.28 
716.29 
671.74 
755.48 
707.63 
673.78 
744.50 
698.48 
717.48 
707.07 
725.43 
734.72 
713.54 
691.31 
738.24 
704.96 
695.74 
747.46 
638.67 
668.72 
696.93 
717.69 
670.97 
731.13 
2028.29 
702.85 
737.04 
710.30 
750.70 
707.35 
724.59 
743.87 
694.89 
685.96 
698.76 
679.41 
654.22 
739.72 
680.05 
696.65 
676.74 
655.63 
700.24 
665.48 
682.65 
760.83 
647.04 
627.41 
729.30 
624.81 
661.89 
659.22 
734.37 
638.74 
570.41 
743.31 
675.54 
628.32 
583.15 
584.34 
634.24 
688.63 
635.43 
664.56 
714.18 
699.26 
649.72 
664.56 
1067.64 
619.46 
558.80 
641.69 
700.17 
585.26 
626.85 
630.72 
679.34 
620.58 
633.64 
592.08 
692.50 
655.91 
604.16 
642.89 
1473.30 
683.28 
672.02 
599.54 
624.45 
655.91 
661.89 
57092.90 
116085.80 
585.54 
566.47 
591.24 
600.19 
648.24 
641.69 
676.46 
584.34 
602.78 
620.58 
666.96 
625.93 
681.81 
641.41 
594.76 
583.01 
620.02 
574.84 
614.95 
643.81 
622.70 
616.71 
619.39 
552.82 
602.68 
614.95 
609.89 
589.97 
543.60 
558.24 
638.74 
615.24 
615.52 
616.43 
596.52 
623.54 
578.71 
635.71 
588.21 
565.34 
1064.39 
566.54 
620.87 
579.00 
536.85 
605.45 
595.67 
665.48 
650.00 
567.39 
535.65 
588.85 
574.77 
578.43 
510.66 
602.78 
586.39 
552.89 
651.19 
579.00 
610.24 
589.13 
537.13 
593.56 
611.30 
570.90 
570.69 
589.41 
586.10 
625.37 
564.14 
508.63 
573.37 
629.24 
560.28 
561.16 
550.50 
600.11 
547.16 
584.34 
538.82 
573.65 
627.41 
590.89 
558.80 
590.89 
20939.47 
565.06 
573.37 
516.86 
608.41 
530.58 
612.00 
513.06 
593.84 
525.23 
506.52 
549.02 
591.45 
509.47 
568.30 
557.60 
551.06 
528.47 
469.99 
579.63 
560.00 
522.62 
488.08 
482.17 
533.26 
603.70 
558.80 
629.80 
567.10 
534.73 
581.11 
550.50 
517.02 
574.84 
571.61 
581.95 
546.63 
546.91 
560.00 
512.68 
608.41 
559.36 
537.41 
529.67 
479.49 
468.52 
515.73 
465.21 
450.64 
586.10 
464.65 
497.02 
498.78 
569.50 
488.71 
553.73 
572.45 
553.17 
488.99 
519.60 
501.73 
322.92 
489.56 
493.15 
540.08 
458.38 
524.04 
587.65 
487.23 
488.99 
487.80 
510.10 
522.00 
448.88 
533.54 
484.84 
519.25 
447.12 
519.32 
434.32 
490.19 
501.45 
504.12 
532.06 
482.45 
532.97 
498.78 
543.54 
519.89 
497.24 
522.28 
498.85 
536.21 
435.23 
532.06 
516.93 
428.97 
532.06 
523.12 
496.38 
530.30 
510.95 
469.71 
500.89 
514.26 
524.04 
516.02 
408.21 
475.91 
509.47 
442.90 
461.34 
442.34 
507.92 
483.93 
472.67 
499.97 
505.04 
465.56 
483.36 
492.55 
556.41 
451.56 
517.78 
964.87 
466.69 
446.49 
516.58 
465.84 
462.54 
400.75 
501.17 
419.75 
447.34 
441.14 
496.31 
910.09 
466.97 
508.91 
526.71 
382.95 
487.16 
392.73 
439.67 
464.93 
474.15 
482.45 
459.86 
501.17 
476.79 
526.43 
437.62 
418.56 
495.82 
417.99 
383.86 
489.63 
452.75 
491.39 
412.64 
494.34 
375.49 
416.80 
459.30 
453.32 
409.06 
446.21 
485.12 
420.67 
485.12 
461.69 
464.93 
433.40 
470.56 
467.32 
388.51 
401.38 
417.43 
440.30 
491.67 
418.56 
457.19 
475.62 
414.37 
481.25 
431.08 
451.84 
454.23 
397.16 
432.56 
471.75 
383.23 
387.10 
423.34 
460.49 
443.54 
431.64 
435.80 
447.41 
483.36 
369.86 
459.30 
469.71 
410.88 
449.80 
464.93 
431.36 
412.93 
456.27 
455.43 
435.80 
490.19 
455.99 
418.91 
381.75 
464.93 
411.73 
428.97 
423.34 
413.84 
450.64 
371.06 
383.23 
424.83 
486.88 
372.25 
370.42 
423.06 
427.49 
461.39 
448.25 
423.34 
382.31 
421.86 
447.41 
464.65 
447.12 
391.53 
384.14 
400.19 
400.19 
399.27 
363.03 
386.19 
453.32 
473.23 
438.19 
337.49 
359.16 
408.77 
443.46 
473.18 
391.81 
366.83 
453.95 
502.01 
406.38 
363.88 
422.43 
361.27 
452.19 
422.43 
376.69 
377.60 
463.17 
400.75 
414.06 
407.01 
393.93 
371.90 
365.43 
421.58 
487.23 
410.25 
381.12 
388.86 
392.45 
422.14 
341.92 
391.53 
374.93 
406.73 
397.80 
426.93 
333.34 
398.36 
414.12 
418.27 
403.14 
366.90 
455.05 
392.73 
400.75 
369.58 
411.17 
427.49 
346.07 
360.92 
450.71 
394.84 
387.38 
416.23 
436.99 
324.12 
404.90 
368.38 
363.03 
346.43 
327.54 
398.99 
458.10 
362.75 
352.34 
349.95 
341.64 
341.08 
382.03 
326.79 
349.95 
388.58 
365.99 
312.23 
388.30 
398.08 
401.67 
379.64 
428.41 
365.99 
332.42 
383.79 
401.67 
366.62 
371.06 
446.21 
355.01 
388.58 
357.69 
341.89 
365.99 
374.01 
432.84 
410.53 
326.79 
382.03 
401.95 
369.58 
285.49 
367.47 
353.53 
330.28 
378.80 
386.19 
380.84 
361.56 
353.53 
369.58 
336.57 
333.90 
341.36 
431.08 
324.12 
356.21 
318.77 
428.41 
336.29 
346.99 
285.49 
413.56 
345.79 
379.08 
328.27 
353.82 
360.36 
302.73 
347.27 
372.82 
336.57 
371.06 
359.16 
400.19 
284.01 
337.77 
350.86 
393.64 
338.33 
357.40 
322.64 
349.95 
346.07 
359.16 
415.60 
366.62 
365.43 
346.99 
316.38 
343.68 
281.90 
344.32 
329.75 
328.55 
368.38 
328.27 
368.94 
398.71 
302.09 
396.60 
346.71 
344.32 
309.27 
390.06 
306.88 
349.95 
275.99 
346.99 
312.34 
302.73 
358.32 
325.88 
332.14 
368.66 
355.29 
294.99 
326.79 
360.36 
311.03 
339.25 
340.45 
365.43 
341.64 
326.51 
316.66 
321.73 
296.75 
289.36 
308.36 
408.49 
371.06 
287.88 
295.90 
370.77 
375.77 
298.58 
304.21 
340.73 
274.51 
289.36 
311.95 
342.84 
297.38 
330.66 
330.03 
333.34 
279.51 
303.64 
292.03 
337.77 
264.38 
312.23 
338.97 
405.54 
303.64 
305.12 
338.97 
318.77 
362.12 
338.97 
317.01 
294.42 
330.66 
308.36 
292.95 
338.69 
257.27 
349.66 
281.62 
308.36 
366.27 
330.95 
319.97 
317.86 
300.34 
308.86 
314.34 
328.55 
313.42 
325.60 
309.55 
319.05 
251.92 
309.27 
317.29 
270.64 
340.45 
309.83 
318.77 
289.64 
357.40 
373.45 
304.49 
269.16 
323.84 
298.86 
299.49 
345.79 
286.96 
260.22 
326.51 
363.32 
310.12 
280.42 
307.72 
277.47 
314.90 
302.73 
235.88 
334.82 
246.57 
231.73 
289.08 
308.08 
324.12 
284.29 
275.99 
260.86 
315.18 
267.97 
328.49 
284.01 
262.62 
327.08 
308.08 
281.62 
269.44 
286.40 
300.05 
285.77 
321.16 
317.58 
338.97 
285.49 
313.42 
310.47 
311.95 
286.40 
332.42 
290.55 
316.10 
337.21 
289.36 
299.14 
301.25 
308.08 
247.77 
332.14 
265.29 
280.14 
305.40 
252.20 
251.29 
259.66 
280.42 
280.77 
277.47 
305.68 
303.64 
217.16 
310.47 
257.27 
267.97 
337.21 
265.01 
280.14 
229.05 
234.68 
316.10 
294.99 
221.03 
284.01 
259.94 
262.34 
296.18 
293.79 
263.81 
295.62 
254.60 
319.05 
274.79 
254.60 
311.31 
288.16 
306.60 
259.94 
296.18 
264.38 
273.31 
250.16 
278.03 
273.31 
282.81 
292.03 
323.20 
266.49 
279.22 
263.53 
271.84 
273.31 
301.25 
281.05 
291.12 
259.66 
242.42 
273.59 
305.12 
270.64 
257.27 
264.09 
292.03 
199.64 
292.03 
253.12 
270.92 
249.81 
346.99 
243.62 
259.94 
242.98 
286.40 
280.70 
294.71 
253.12 
251.92 
245.38 
258.75 
261.14 
281.62 
271.84 
239.47 
270.36 
295.62 
298.58 
253.40 
207.66 
275.71 
296.18 
296.75 
258.75 
228.77 
248.97 
236.16 
293.79 
257.82 
253.12 
264.09 
279.53 
244.18 
248.05 
270.36 
215.68 
246.85 
210.33 
254.88 
292.03 
295.52 
242.70 
250.16 
230.25 
254.60 
255.79 
235.88 
265.01 
252.20 
218.64 
226.66 
233.20 
249.25 
233.48 
278.66 
282.53 
292.03 
256.99 
262.62 
240.94 
272.12 
273.88 
274.79 
215.68 
208.86 
187.74 
264.38 
239.75 
261.42 
246.57 
248.05 
261.14 
223.98 
238.83 
245.10 
250.72 
266.49 
229.05 
197.24 
247.77 
278.66 
237.64 
259.94 
239.75 
248.05 
227.57 
218.35 
253.68 
249.25 
215.96 
209.42 
266.77 
242.98 
229.05 
256.07 
221.03 
251.92 
242.42 
207.94 
224.62 
249.25 
199.64 
245.66 
245.10 
226.10 
237.35 
261.42 
250.44 
230.25 
220.11 
239.75 
230.81 
277.47 
221.03 
233.48 
187.46 
188.94 
139.33 
270.64 
188.66 
210.33 
231.73 
194.01 
266.49 
250.44 
189.22 
235.24 
294.99 
211.53 
225.46 
248.97 
218.07 
237.07 
231.73 
220.75 
197.24 
183.87 
253.12 
218.07 
204.98 
208.86 
277.18 
255.79 
208.86 
263.18 
174.09 
239.75 
184.79 
235.88 
265.01 
195.77 
259.94 
231.44 
245.38 
242.14 
251.57 
257.27 
243.90 
231.73 
192.53 
167.83 
242.14 
201.40 
223.70 
220.75 
214.77 
258.75 
242.70 
213.29 
217.16 
253.12 
204.98 
182.68 
223.98 
233.20 
200.20 
264.09 
269.44 
252.84 
229.05 
230.53 
180.92 
209.14 
214.20 
248.33 
198.16 
238.27 
202.31 
209.42 
184.79 
241.79 
196.96 
218.35 
215.68 
196.96 
216.88 
229.05 
226.38 
196.68 
223.42 
204.35 
230.25 
243.62 
183.31 
216.60 
212.73 
187.46 
191.33 
188.94 
159.53 
193.17 
185.07 
210.33 
216.88 
192.81 
212.73 
191.61 
171.70 
237.07 
230.53 
210.05 
238.27 
212.09 
140.81 
194.57 
155.94 
221.03 
192.53 
213.29 
208.86 
193.09 
228.77 
167.55 
240.94 
257.55 
215.40 
203.51 
193.09 
203.79 
185.07 
190.70 
188.94 
192.18 
219.27 
194.85 
222.51 
219.83 
235.88 
209.42 
218.35 
198.16 
169.94 
194.01 
214.20 
153.26 
204.35 
126.24 
185.07 
216.60 
178.24 
191.61 
178.24 
226.38 
188.94 
206.18 
192.53 
184.79 
208.86 
155.37 
166.07 
179.72 
171.42 
225.18 
245.66 
215.33 
191.90 
219.55 
210.05 
164.87 
189.22 
192.53 
180.00 
207.38 
199.64 
219.27 
177.05 
183.59 
207.66 
210.33 
168.74 
203.51 
203.79 
210.05 
223.70 
206.46 
191.61 
191.33 
196.33 
170.50 
179.44 
171.42 
196.96 
200.83 
187.46 
185.07 
188.94 
218.64 
155.37 
173.81 
176.77 
214.48 
174.09 
224.90 
209.14 
195.77 
191.61 
161.00 
160.72 
181.20 
182.40 
213.29 
162.48 
160.72 
186.27 
176.49 
174.37 
184.79 
197.24 
176.77 
196.68 
183.31 
201.11 
207.38 
174.66 
189.86 
164.59 
166.07 
202.59 
183.87 
165.16 
203.51 
174.09 
179.72 
181.20 
169.94 
147.35 
192.81 
154.18 
170.50 
151.79 
202.31 
195.49 
188.94 
176.77 
171.70 
161.00 
230.81 
161.92 
151.22 
177.05 
174.09 
190.70 
189.22 
178.53 
195.20 
185.07 
166.07 
152.42 
152.98 
171.70 
187.46 
163.68 
239.47 
163.40 
186.27 
194.29 
180.92 
207.38 
182.12 
170.22 
166.07 
147.92 
174.09 
164.87 
188.31 
210.61 
175.57 
163.40 
154.18 
166.35 
191.61 
191.61 
166.35 
167.27 
149.11 
180.92 
163.96 
196.68 
169.03 
204.70 
168.74 
169.94 
184.79 
131.03 
154.18 
166.07 
144.68 
134.26 
166.35 
156.57 
144.68 
162.20 
179.72 
155.37 
147.35 
167.27 
127.44 
188.03 
132.50 
155.66 
163.40 
132.50 
147.35 
150.31 
204.98 
169.94 
198.44 
193.09 
151.50 
141.09 
156.85 
176.77 
152.98 
175.57 
139.33 
122.09 
170.22 
171.42 
127.72 
166.07 
135.18 
140.53 
161.92 
203.79 
191.33 
165.16 
172.90 
175.57 
179.44 
115.26 
159.53 
136.94 
188.03 
137.22 
145.87 
227.57 
125.96 
147.35 
165.16 
182.12 
177.96 
170.22 
153.90 
174.09 
120.61 
152.70 
149.75 
124.76 
144.68 
186.55 
159.25 
167.83 
131.31 
127.16 
148.83 
161.92 
151.50 
143.20 
127.16 
192.81 
162.20 
137.85 
185.99 
127.16 
144.68 
161.92 
148.83 
173.81 
144.68 
145.87 
154.18 
156.57 
179.44 
137.85 
163.40 
190.14 
157.77 
136.66 
208.86 
139.05 
196.68 
147.35 
194.29 
166.07 
143.48 
146.16 
160.72 
142.29 
126.24 
179.72 
167.27 
156.85 
152.70 
130.39 
140.53 
161.92 
152.07 
150.03 
143.48 
127.16 
176.77 
172.62 
105.76 
126.24 
158.33 
177.96 
190.14 
172.90 
120.61 
143.48 
169.31 
131.31 
138.13 
138.42 
122.37 
139.33 
141.72 
144.96 
161.92 
153.90 
114.98 
145.87 
178.24 
125.96 
156.57 
138.42 
137.85 
180.92 
153.90 
190.42 
120.89 
158.05 
139.05 
175.57 
199.64 
150.31 
167.55 
145.87 
119.13 
158.05 
179.72 
138.13 
182.96 
116.74 
136.66 
145.87 
152.70 
142.00 
107.24 
110.20 
114.07 
144.68 
144.68 
162.76 
139.33 
124.48 
139.33 
143.48 
152.42 
120.33 
179.16 
166.63 
174.09 
127.44 
144.68 
124.48 
147.35 
138.42 
172.62 
142.00 
141.09 
139.05 
132.79 
128.92 
105.76 
115.26 
113.79 
143.20 
142.00 
158.33 
123.29 
115.55 
124.76 
103.09 
114.07 
147.63 
136.66 
162.20 
121.81 
153.90 
121.81 
142.00 
145.87 
155.37 
142.00 
125.96 
145.87 
127.44 
144.96 
127.44 
144.68 
117.66 
125.96 
128.63 
192.81 
131.31 
133.98 
111.39 
117.02 
142.00 
115.26 
132.50 
116.74 
148.83 
131.59 
147.35 
108.44 
136.02 
127.16 
140.53 
99.22 
164.59 
129.83 
131.31 
106.05 
141.72 
138.13 
139.33 
111.39 
96.55 
101.89 
125.96 
122.09 
133.98 
120.61 
123.00 
139.61 
114.07 
147.35 
130.11 
114.98 
121.81 
121.81 
136.66 
138.13 
133.98 
158.61 
160.72 
135.46 
124.48 
111.11 
114.98 
130.11 
88.81 
127.44 
91.20 
128.63 
135.46 
125.96 
117.94 
123.29 
116.46 
91.20 
124.76 
107.52 
91.20 
125.68 
99.22 
143.76 
123.00 
137.22 
99.22 
88.24 
115.26 
115.26 
111.39 
107.52 
169.94 
95.07 
116.46 
108.44 
120.61 
112.59 
96.55 
132.50 
117.94 
140.81 
110.20 
132.50 
115.26 
104.85 
91.20 
164.87 
98.94 
114.98 
124.48 
128.63 
123.00 
88.52 
140.53 
84.65 
141.09 
92.39 
97.74 
135.46 
120.33 
120.33 
97.74 
101.61 
109.92 
85.57 
147.07 
118.22 
127.16 
132.50 
77.83 
97.74 
120.61 
125.68 
109.92 
96.83 
116.74 
124.48 
123.29 
104.57 
100.42 
127.44 
114.98 
127.44 
121.81 
103.09 
128.63 
139.05 
114.07 
109.63 
107.24 
109.63 
117.94 
112.87 
112.31 
90.00 
124.48 
123.29 
66.85 
125.96 
107.24 
123.57 
135.18 
100.42 
112.59 
115.55 
76.63 
105.76 
115.26 
111.39 
110.20 
110.20 
119.13 
109.00 
122.65 
120.61 
113.79 
84.37 
100.70 
111.39 
103.09 
79.31 
120.89 
81.70 
72.20 
120.33 
121.81 
90.00 
106.05 
104.29 
108.44 
120.33 
87.61 
116.46 
135.18 
128.92 
100.70 
98.94 
113.79 
92.68 
124.76 
77.83 
88.24 
127.44 
133.98 
106.05 
105.76 
125.96 
113.79 
108.72 
85.57 
106.05 
115.26 
119.13 
131.59 
81.70 
131.31 
112.31 
115.26 
94.15 
90.92 
101.61 
104.57 
88.52 
131.59 
88.24 
96.55 
100.70 
96.55 
123.85 
127.16 
120.33 
116.46 
101.89 
91.20 
112.59 
88.24 
124.48 
120.33 
66.22 
127.44 
77.83 
99.50 
112.59 
97.74 
74.87 
93.87 
88.24 
95.35 
111.11 
97.74 
104.29 
128.63 
119.70 
87.33 
100.42 
69.81 
58.83 
103.37 
103.37 
106.05 
111.11 
59.11 
124.48 
109.63 
83.18 
90.00 
90.00 
90.00 
106.96 
108.44 
80.50 
95.07 
83.18 
76.35 
115.26 
71.00 
90.92 
97.39 
124.48 
106.05 
132.79 
92.39 
111.11 
81.98 
91.20 
103.09 
83.18 
119.13 
91.20 
100.42 
77.83 
91.20 
99.22 
62.98 
88.52 
87.61 
77.55 
105.76 
80.50 
104.29 
87.05 
72.48 
109.92 
84.65 
103.09 
98.02 
97.74 
102.18 
93.87 
76.63 
55.24 
101.89 
98.02 
74.24 
91.48 
95.35 
73.68 
89.09 
104.29 
68.33 
93.59 
81.70 
73.96 
103.09 
109.92 
112.59 
46.02 
105.76 
90.92 
125.05 
82.89 
108.72 
93.87 
88.52 
79.31 
100.42 
73.96 
74.87 
91.48 
81.70 
140.53 
92.68 
81.98 
87.33 
91.20 
81.70 
96.55 
80.50 
109.00 
122.09 
77.55 
100.42 
98.02 
72.20 
99.50 
103.09 
96.26 
69.81 
87.33 
96.55 
87.05 
99.22 
93.59 
90.92 
89.72 
123.29 
53.48 
75.44 
85.57 
84.37 
97.74 
51.09 
65.65 
61.78 
101.89 
92.96 
80.78 
81.70 
81.70 
100.70 
67.13 
90.92 
87.05 
80.22 
71.00 
114.35 
54.96 
91.20 
72.48 
80.78 
68.33 
57.91 
68.33 
91.20 
72.20 
79.02 
68.33 
88.52 
89.72 
107.24 
90.00 
76.35 
73.68 
66.85 
64.46 
72.20 
81.70 
116.74 
84.37 
93.59 
81.70 
67.13 
81.70 
73.68 
74.87 
75.15 
90.00 
69.81 
106.33 
69.81 
79.02 
53.48 
101.89 
64.46 
88.24 
73.68 
96.26 
76.63 
95.35 
81.70 
55.24 
80.78 
76.35 
80.22 
98.94 
57.63 
62.98 
77.83 
69.52 
57.63 
77.55 
71.00 
67.41 
73.68 
90.00 
77.83 
80.50 
96.83 
73.68 
82.89 
88.24 
62.98 
90.28 
75.15 
103.09 
66.85 
79.02 
79.02 
62.98 
77.83 
80.22 
53.48 
65.94 
72.48 
76.35 
77.55 
61.50 
60.31 
89.72 
92.39 
65.94 
95.07 
92.39 
73.68 
64.18 
78.11 
61.78 
65.65 
90.92 
68.61 
49.89 
76.35 
61.78 
65.65 
73.68 
61.50 
73.96 
55.21 
69.81 
68.61 
96.83 
73.96 
68.33 
62.98 
67.13 
79.02 
61.50 
62.98 
68.61 
87.05 
93.87 
95.07 
73.68 
59.11 
81.70 
65.65 
68.33 
71.00 
65.65 
69.52 
73.96 
108.72 
70.09 
63.26 
103.09 
62.98 
92.39 
65.65 
78.11 
72.48 
71.28 
60.31 
72.48 
56.15 
59.11 
66.85 
81.70 
69.81 
80.22 
64.46 
54.96 
64.18 
108.44 
61.78 
58.83 
76.63 
79.31 
56.15 
64.46 
52.57 
64.18 
80.22 
61.50 
76.35 
69.81 
69.81 
63.37 
81.70 
77.55 
63.26 
61.50 
60.31 
54.96 
63.26 
42.78 
77.55 
88.06 
71.00 
77.83 
75.15 
49.61 
57.63 
92.68 
57.63 
68.33 
84.37 
85.85 
77.55 
104.57 
90.28 
62.07 
92.39 
52.28 
79.02 
73.68 
54.96 
83.18 
88.52 
72.48 
88.52 
65.65 
65.65 
58.83 
54.96 
72.20 
77.55 
59.11 
65.65 
65.65 
73.96 
67.13 
69.81 
71.28 
82.89 
75.15 
75.72 
58.83 
57.91 
61.78 
76.91 
55.24 
38.91 
64.18 
78.11 
59.11 
38.91 
52.28 
80.22 
84.65 
68.33 
73.68 
70.09 
48.70 
54.96 
74.87 
88.81 
54.04 
69.81 
57.63 
58.83 
63.26 
79.02 
72.48 
79.31 
69.52 
56.15 
56.44 
38.91 
65.65 
65.94 
58.83 
42.78 
61.50 
77.83 
64.18 
54.96 
72.48 
51.09 
69.52 
58.83 
84.37 
68.33 
71.28 
40.11 
37.72 
55.24 
58.83 
71.00 
40.11 
61.78 
36.24 
60.31 
68.61 
79.31 
64.46 
67.13 
61.50 
64.18 
52.28 
49.61 
64.18 
61.50 
40.11 
64.18 
90.00 
57.63 
54.96 
54.96 
74.87 
62.98 
68.61 
55.24 
58.83 
65.65 
60.31 
49.61 
73.68 
62.98 
60.31 
68.61 
53.48 
65.65 
75.15 
79.02 
48.13 
53.48 
57.63 
65.65 
49.61 
37.44 
64.46 
40.11 
36.24 
53.76 
46.94 
46.94 
58.83 
56.15 
60.59 
76.35 
53.48 
40.11 
36.24 
57.63 
64.18 
45.46 
40.11 
68.33 
46.02 
50.81 
62.98 
76.35 
48.13 
69.81 
57.63 
62.98 
56.44 
69.52 
53.76 
48.41 
47.22 
50.81 
66.85 
54.96 
41.59 
58.83 
48.41 
40.67 
62.98 
51.09 
58.83 
53.48 
37.72 
58.83 
42.78 
60.31 
45.46 
67.13 
54.96 
77.55 
41.59 
35.04 
77.83 
64.18 
43.07 
51.09 
41.59 
32.37 
44.26 
45.74 
56.44 
71.00 
41.59 
66.85 
49.61 
52.28 
53.48 
53.76 
32.09 
67.13 
71.28 
46.94 
18.72 
28.22 
69.52 
29.70 
40.11 
34.76 
65.94 
56.15 
52.28 
71.00 
61.50 
52.28 
48.13 
45.46 
57.63 
46.94 
44.26 
26.74 
62.98 
35.04 
61.50 
25.54 
60.31 
75.44 
45.46 
58.83 
61.50 
46.02 
49.61 
45.46 
49.61 
56.15 
38.91 
49.61 
43.07 
45.46 
54.96 
45.74 
60.31 
58.83 
44.26 
49.61 
46.94 
46.94 
40.11 
47.50 
48.13 
53.76 
52.28 
55.24 
56.15 
32.09 
41.59 
52.85 
41.59 
27.30 
76.35 
49.61 
35.04 
64.18 
53.76 
55.24 
29.41 
35.04 
29.70 
48.41 
57.63 
36.24 
59.11 
36.24 
54.96 
30.89 
37.72 
54.96 
56.44 
34.76 
37.44 
50.81 
51.09 
32.09 
33.85 
45.74 
33.57 
42.78 
52.28 
34.76 
25.54 
49.61 
56.44 
48.41 
43.07 
33.57 
40.39 
52.28 
37.44 
65.65 
40.11 
41.87 
45.46 
41.59 
41.59 
38.91 
63.26 
46.94 
57.63 
53.48 
25.54 
32.37 
50.81 
30.89 
32.09 
27.02 
49.61 
35.04 
46.02 
37.13 
45.26 
49.61 
50.81 
37.72 
36.24 
48.13 
42.78 
37.44 
54.96 
32.09 
52.28 
18.72 
40.11 
49.61 
35.04 
53.48 
42.78 
46.94 
41.59 
44.54 
41.59 
38.91 
37.44 
29.41 
24.35 
36.24 
34.76 
34.76 
42.78 
53.48 
42.78 
48.41 
34.76 
38.91 
52.28 
30.89 
45.74 
44.54 
40.11 
52.28 
57.63 
32.37 
21.67 
24.07 
29.70 
35.33 
46.94 
24.07 
39.20 
37.44 
41.59 
37.72 
32.37 
73.68 
32.37 
48.41 
43.07 
25.54 
41.59 
42.78 
25.54 
22.87 
45.74 
29.41 
32.37 
25.54 
29.70 
42.78 
33.57 
42.78 
36.24 
37.44 
36.52 
24.07 
31.17 
40.11 
35.04 
38.91 
37.44 
60.31 
46.94 
48.13 
34.76 
42.78 
49.89 
33.57 
48.41 
39.20 
38.91 
37.44 
50.81 
46.94 
29.41 
34.76 
24.07 
60.31 
36.52 
56.44 
38.91 
38.91 
33.57 
34.13 
18.72 
37.44 
37.44 
33.57 
45.46 
38.91 
37.44 
32.09 
59.11 
41.59 
32.09 
28.22 
48.13 
20.20 
31.46 
36.24 
40.39 
56.44 
37.44 
29.41 
21.67 
37.44 
29.41 
32.37 
33.85 
38.91 
30.89 
34.76 
24.63 
43.07 
45.46 
33.57 
28.22 
37.44 
37.44 
28.22 
32.37 
53.48 
25.54 
35.33 
34.13 
46.94 
29.41 
26.74 
14.85 
26.74 
41.59 
42.78 
41.59 
29.41 
34.76 
34.76 
30.89 
25.54 
25.54 
34.76 
34.76 
21.39 
37.72 
50.81 
24.07 
40.67 
16.04 
32.09 
28.22 
13.65 
26.74 
26.74 
29.41 
45.46 
25.54 
40.11 
31.17 
25.54 
36.24 
27.02 
25.54 
19.00 
20.20 
52.28 
32.09 
33.57 
23.15 
38.91 
25.54 
24.07 
32.09 
10.70 
28.50 
24.35 
44.54 
32.09 
19.28 
54.96 
24.07 
40.39 
29.41 
29.41 
28.22 
33.57 
45.74 
29.41 
17.52 
24.07 
48.13 
24.35 
20.20 
25.54 
22.87 
20.48 
13.65 
39.20 
37.44 
22.87 
41.59 
24.07 
25.54 
21.67 
21.39 
29.41 
25.54 
20.20 
30.89 
22.87 
31.17 
29.70 
30.89 
25.54 
24.07 
33.57 
9.50 
26.74 
8.02 
35.04 
24.35 
28.22 
29.41 
33.57 
29.70 
29.41 
24.07 
9.50 
32.37 
22.87 
20.48 
12.17 
35.04 
27.02 
30.89 
24.35 
8.02 
42.78 
42.78 
28.22 
21.39 
14.85 
16.04 
25.54 
25.54 
17.52 
29.41 
36.24 
20.20 
33.85 
30.89 
17.52 
20.20 
18.72 
19.00 
21.39 
37.44 
20.20 
24.35 
22.87 
28.22 
41.59 
38.91 
24.07 
12.17 
14.85 
14.85 
13.37 
27.02 
25.54 
32.09 
24.07 
40.11 
18.72 
35.04 
30.89 
18.72 
21.67 
10.70 
28.22 
24.63 
32.37 
40.11 
32.09 
17.52 
21.39 
41.59 
30.89 
21.39 
22.87 
22.87 
22.87 
30.89 
22.87 
17.52 
17.52 
22.87 
16.04 
19.00 
13.37 
19.00 
14.85 
25.54 
22.87 
22.87 
25.54 
25.54 
25.54 
29.98 
37.44 
28.22 
28.22 
42.78 
32.65 
24.07 
17.52 
20.20 
22.87 
12.46 
28.22 
24.07 
30.89 
28.22 
22.87 
24.07 
23.15 
25.54 
22.87 
24.07 
28.22 
30.89 
30.89 
25.54 
9.50 
24.07 
21.67 
17.52 
6.83 
28.22 
10.70 
21.39 
20.20 
10.70 
18.72 
12.17 
12.17 
25.54 
34.76 
32.37 
17.52 
21.39 
9.50 
7.11 
5.35 
21.39 
18.72 
21.39 
26.74 
32.09 
21.39 
12.17 
20.48 
10.70 
10.70 
22.87 
24.35 
30.89 
22.87 
17.52 
14.85 
44.26 
8.02 
6.83 
20.20 
16.04 
24.07 
9.50 
14.85 
10.70 
17.52 
19.28 
18.72 
10.98 
16.04 
18.72 
26.74 
24.07 
16.33 
30.89 
13.37 
13.65 
12.17 
8.02 
18.72 
13.65 
30.89 
24.07 
27.30 
18.72 
13.37 
28.50 
24.35 
9.50 
22.87 
16.04 
10.70 
22.87 
25.54 
16.04 
14.85 
18.72 
21.39 
13.65 
21.67 
10.70 
17.52 
16.04 
10.70 
16.04 
18.72 
24.07 
17.52 
29.70 
13.65 
16.04 
8.02 
16.04 
14.85 
10.70 
18.72 
24.35 
21.67 
24.35 
14.85 
10.70 
9.50 
37.44 
24.07 
21.39 
24.35 
10.98 
16.04 
18.72 
19.00 
21.39 
25.54 
13.37 
42.78 
12.17 
19.00 
28.22 
24.35 
18.72 
21.39 
19.00 
10.70 
13.37 
8.02 
16.04 
10.98 
10.70 
16.04 
24.63 
13.37 
12.17 
5.35 
16.04 
8.02 
18.72 
16.04 
10.70 
17.52 
18.72 
21.67 
10.70 
22.87 
19.00 
16.04 
10.70 
16.04 
24.07 
24.35 
8.02 
16.33 
16.04 
9.50 
17.52 
17.52 
10.70 
8.02 
16.04 
24.07 
17.52 
13.37 
22.87 
16.04 
12.17 
24.07 
16.04 
5.35 
10.70 
5.35 
6.83 
20.20 
17.52 
20.20 
10.70 
8.30 
24.07 
1.48 
24.07 
13.37 
2.67 
10.70 
17.52 
10.70 
14.85 
12.17 
10.70 
6.83 
16.04 
9.50 
20.20 
8.02 
6.83 
14.85 
9.50 
9.50 
4.15 
13.37 
13.37 
10.70 
14.85 
29.41 
7.11 
10.98 
13.37 
10.70 
0.10 
5.35 
5.35 
14.85 
13.37 
8.02 
16.04 
10.70 
16.04 
8.02 
5.35 
9.50 
8.30 
12.17 
6.83 
6.83 
5.35 
5.35 
9.50 
0.10 
10.70 
5.35 
5.35 
4.15 
8.02 
22.87 
15.13 
9.50 
8.02 
10.70 
9.50 
13.65 
16.04 
16.04 
0.10 
6.83 
2.67 
6.83 
4.15 
5.35 
5.63 
9.50 
13.37 
2.67 
9.78 
10.70 
9.50 
12.17 
8.30 
8.02 
13.65 
5.35 
5.35 
8.02 
14.85 
5.35 
17.52 
5.35 
16.04 
23.15 
9.50 
5.35 
2.67 
10.98 
9.50 
2.67 
13.37 
9.50 
4.15 
16.04 
6.83 
0.10 
4.15 
10.70 
10.70 
5.35 
13.65 
10.98 
5.35 
8.30 
18.72 
13.65 
14.85 
10.98 
9.50 
10.70 
6.83 
6.83 
10.98 
8.02 
9.50 
8.02 
16.04 
5.35 
8.02 
10.98 
2.67 
5.35 
4.15 
6.83 
12.17 
8.02 
5.35 
12.17 
9.50 
6.83 
6.83 
12.17 
10.98 
8.02 
5.63 
9.50 
8.02 
6.83 
1.48 
10.98 
13.37 
8.30 
2.67 
8.02 
10.70 
12.17 
5.35 
10.98 
2.67 
10.98 
5.35 
4.15 
2.67 
5.35 
8.02 
0.10 
8.02 
2.67 
14.85 
6.83 
9.50 
13.37 
4.15 
6.83 
9.50 
5.35 
5.35 
10.70 
5.63 
6.83 
5.35 
2.67 
5.35 
10.70 
8.02 
1.48 
5.35 
6.83 
12.17 
8.02 
0.10 
5.35 
6.83 
8.02 
4.15 
0.10 
0.10 
5.63 
8.02 
6.83 
12.17 
0.10 
2.67 
4.15 
5.63 
5.63 
9.50 
6.83 
5.35 
6.83 
4.15 
4.15 
10.98 
5.63 
1.48 
8.02 
4.15 
4.15 
6.83 
4.15 
5.35 
2.67 
0.10 
9.50 
0.10 
8.02 
2.67 
8.02 
0.10 
8.02 
13.65 
5.63 
2.96 
0.10 
6.83 
1.48 
1.48 
2.67 
8.30 
2.67 
16.33 
8.02 
8.02 
2.67 
2.67 
4.15 
2.96 
10.98 
2.67 
4.15 
5.35 
2.67 
0.10 
2.67 
5.35 
0.10 
2.67 
10.98 
2.67 
6.83 
6.83 
2.67 
10.98 
5.35 
0.10 
2.96 
5.35 
2.67 
1.48 
0.10 
0.10 
1.48 
4.15 
2.67 
5.35 
1.48 
2.67 
1.48 
0.10 
0.10 
1.48 
0.10 
4.43 
4.15 
1.48 
0.10 
4.15 
1.48 
2.67 
0.10 
5.35 
0.10 
2.67 
1.48 
1.48 
5.63 
0.10 
2.67 
0.10 
8.30 
4.15 
0.10 
0.10 
0.10 
2.96 
2.67 
4.15 
0.10 
2.67 
2.67 
1.48 
0.10 
0.10 
5.63 
5.35 
1.48 
1.48 
1.48 
0.10 
2.67 
2.67 
1.48 
2.67 
0.10 
5.63 
0.10 
1.48 
0.10 
0.10 
0.10 
4.15 
1.48 
0.10 
1.48 
2.67 
1.48 
0.10 
0.10 
0.10 
1.48 
0.10 
0.10 
0.10 
1.48 
0.10 
0.10 
0.10 
0.10 
0.10 
2.96 
1.48 
0.10 
1.48 
1.48 
0.10 
1.48 
0.10 
1.48 
0.10 
0.10 
0.10 
0.10 
0.10 
0.10 
0.10 
0.10 
0.10 
0.10 
0.10 
0.10 
0.10 
0.10 
0.10 
0.10 
#ENDOFDATA   : 
